,channel_AF3_lyap_r,arousal,valence,dominance,liking,subject,channel_F3_lyap_r,channel_F7_lyap_r,channel_FC5_lyap_r,channel_T7_lyap_r,channel_P7_lyap_r,channel_O1_lyap_r,channel_O2_lyap_r,channel_P8_lyap_r,channel_T8_lyap_r,channel_FC6_lyap_r,channel_F8_lyap_r,channel_F4_lyap_r,channel_AF4_lyap_r
0,0.04133782972369268,7.71,7.6,6.9,7.83,s01,0.045203127554210805,0.0392510150608263,0.0387536082351416,0.04075417915980014,0.04840324907972108,0.042432885002671596,0.0014680734614735493,0.0479732481160559,0.03766338562132354,0.044504955030025495,0.04027084927809862,0.03802586123775666,0.04555354566502402
0,0.045712950175866254,8.1,7.31,7.28,8.47,s01,0.05052343777247839,0.044517203459684226,0.04523046384180402,0.04106900231880047,0.050437880548319505,0.04681087962368066,0.016110658645629754,0.04869769578589539,0.04487031877489023,0.048186108582001945,0.041507237835934234,0.03601681047285196,0.04804477297273798
0,0.04233353723559453,8.58,7.54,9.0,7.08,s01,0.027411469564029168,0.034875398680036175,0.04453899457042384,0.044523838229645514,0.052147808379696826,0.04597040477551903,0.002828605242256105,0.049607138795063975,0.04238549533643216,0.04403565641035107,0.04541697062944116,0.04387019666514009,0.047028759637273404
0,0.04499740009021049,4.94,6.01,6.12,8.06,s01,0.03527549651279646,0.037838351220380206,0.045558224329466865,0.04522388662610745,0.04946359763468126,0.04815554968396526,0.019775404403576318,0.04861387417728747,0.042116192767494544,0.04419890149195398,0.04531060080779233,0.04182017769729874,0.04585526339093552
0,0.04132103041598663,6.96,3.92,7.19,6.05,s01,0.03523477217308564,0.04688019675688532,0.03690025143157271,0.04925669532135379,0.04710411941796015,0.048887830031545586,0.0009978871026676125,0.0473331574210548,0.03531735705781018,0.045954359294776696,0.037890024255831,0.0437330986324111,0.04406460962797462
0,0.04111780200088227,8.27,3.92,7.0,8.03,s01,0.043986094446110624,0.03658425954350248,0.04286087661757512,0.03807001824964547,0.05080695116430308,0.04775610964997381,0.005222147747986343,0.048888431455856037,0.0443349102385959,0.04579185704539596,0.039635488234068164,0.04398006568277695,0.04311475691042445
0,0.04422417771547371,7.44,3.73,7.08,7.04,s01,0.04263242142541075,0.037428358144927454,0.04380233018918154,0.044298608948413615,0.04879902646057593,0.048738616122339,0.006662478841337179,0.04770516892124842,0.04527563815726379,0.04698693115908401,0.045051974102966845,0.04405995212999506,0.04376382012116274
0,0.04674044874377723,7.32,2.55,6.32,5.87,s01,0.038451737769142555,0.042580347102985,0.04193754823584296,0.04052154515918925,0.051946406884301057,0.04564404947715888,0.011143718341555793,0.04638977720026378,0.045396494417262345,0.04818753264004132,0.045920506186951475,0.047249375001205525,0.04856137359948988
0,0.04676462976556086,4.04,3.29,3.62,5.99,s01,0.046702558474433255,0.042948146242844515,0.04544572346192556,0.04626015090217963,0.05040783371244165,0.045237447504411624,0.013796292689808446,0.04903754506792345,0.046231376592126366,0.0476284695747204,0.04267508188883459,0.037819359595315474,0.046844055598839855
0,0.044432960327406665,1.99,4.86,2.04,7.09,s01,0.03850427761412498,0.03807957339705075,0.03571584416089574,0.04416204242778009,0.050527968173636605,0.0391720737413409,0.0038964110209530225,0.045934078299013366,0.04155832821862734,0.04596505263694255,0.045075272796745676,0.045104390069058135,0.043224818246406345
0,0.045404807965558354,2.99,2.36,3.63,6.24,s01,0.029615677599883837,0.04011061735320502,0.04503903756464341,0.04562282418846195,0.049642061739039615,0.048653042495698955,0.001955303983422583,0.049078322084326546,0.044075864687898175,0.04656914212649935,0.042657470972018184,0.040003456985741294,0.043786073149296154
0,0.04562099078544106,2.71,2.77,3.4,7.35,s01,0.04523830575154248,0.045380740327046386,0.04464198852840229,0.04638277408771957,0.05050143128947218,0.049590507933968006,0.005962038876717408,0.04967526968260465,0.04625992541922665,0.04694826441599919,0.042221905055798925,0.040521505422759424,0.04801835646306671
0,0.03997259265498103,1.95,3.12,2.87,6.18,s01,0.030652799543919626,0.036599991280438934,0.03839133455042248,0.045286477336508445,0.04820083532118265,0.04716200676179476,0.012470614282708358,0.04674517427171989,0.04093344797167855,0.04682433551415468,0.04432271136377095,0.043441143340634314,0.04709061913024221
0,0.044496757016146186,4.18,2.24,3.04,5.04,s01,0.043960289309795744,0.03992958068847649,0.042203269686017786,0.03713985493308614,0.05048149895847299,0.04834645439807642,0.010327717295863927,0.04792830639315734,0.04367088402124282,0.044464260922338746,0.0374702666935167,0.02582468062776154,0.04315615999967538
0,0.04171721851616568,3.17,8.08,2.91,5.04,s01,0.04187201198778642,0.03969226489987283,0.04336688814306623,0.04610154431565366,0.053778469383268496,0.0491813294869617,0.0033947382475199165,0.04446982877296302,0.044993047427414105,0.04182575917887196,0.04598589517120138,0.04544056044485343,0.04686785730204192
0,0.03709722166301826,6.81,7.44,8.15,7.14,s01,0.03082883770966916,0.03732735462356023,0.04513527593834252,0.02987424361268341,0.044033703469393476,0.04168301841668909,0.0056391473402054235,0.046141698306664564,0.038700854778289745,0.04458568132013316,0.044076581825887445,0.03976515636109467,0.0468385060927026
0,0.040902112241376846,2.46,6.91,6.77,6.41,s01,0.044297600778422035,0.03536757163799007,0.03837112627531348,0.0448813174003946,0.052129035605523864,0.05044984620316585,0.006860271083904298,0.04692398713047349,0.0472309237135981,0.045717714872575387,0.04249854966213821,0.044988468625491766,0.0470461701988278
0,0.04501569208345925,7.23,7.15,6.94,8.01,s01,0.04825909859277536,0.03977707708091058,0.0411900304911429,0.04142884497056922,0.050390138213795906,0.04522935716729406,0.004996702724829806,0.04525612069849375,0.04021545523091359,0.04607122751106902,0.04469640774834429,0.04463389672731099,0.047139453529415384
0,0.04598934757978404,7.17,8.0,8.1,6.79,s01,0.02403065175762783,0.03942664234261759,0.04486530024306226,0.046560292584555546,0.051549589096155465,0.04831546948368396,0.018947196544561295,0.04858022937201029,0.042689909433063646,0.048152288010245924,0.04676239194726594,0.04557197930520047,0.04823307220200852
0,0.04385419205615401,8.26,7.91,7.19,8.13,s01,0.023994275334932605,0.02592848061828172,0.0380600211913125,0.03471239780441209,0.04995207598334877,0.04824566088224723,0.007802669625533112,0.046586731950143234,0.03633838053669148,0.04163860898268845,0.04178597236934455,0.045051159087876685,0.04656703391469518
0,0.04508884840441833,9.0,7.95,8.37,7.86,s01,0.032720334178733976,0.03637111396120299,0.04405690575004525,0.043361667045077074,0.04906200188443179,0.04824563811596182,0.013856598368862194,0.048668081778332824,0.03768500175585743,0.04618432683155955,0.044627896825173784,0.04388260402177515,0.04671413755058356
0,0.045405355521610846,7.09,2.08,7.06,7.37,s01,0.04473497625580417,0.03926977504763683,0.04090265600304847,0.04641844356866711,0.04783265297872971,0.04745565652847294,0.004948455913394119,0.04587874663503541,0.04627178450276084,0.04701892110638159,0.045919641337000425,0.045768278344233325,0.047912654840856606
0,0.044901489135914345,8.15,3.01,7.37,7.9,s01,0.03881922855711812,0.025850062823776544,0.04371283179835275,0.029405865664356053,0.05008201482600743,0.04354704262917496,0.010128753473146134,0.04331834692704037,0.030828214560467825,0.04650266582804519,0.04015113930953171,0.031132761808673855,0.047380635164734175
0,0.04597685363955969,7.04,7.09,8.01,8.22,s01,0.02858865300844891,0.04594395122323529,0.04134456609424783,0.04501904751125139,0.05030047382627218,0.04821997674784272,0.00676709481191102,0.048649942964539575,0.03765163820752632,0.043843611499719416,0.04303750104473951,0.04404310812627468,0.04723322454251746
0,0.04304340429473339,8.86,7.21,8.65,7.21,s01,0.044630615334761835,0.038225802622343305,0.04478289175750625,0.037138492330309074,0.04973008238283324,0.04433837104261954,0.005735053366551846,0.047034414190995015,0.04110482345547582,0.04759128712173692,0.041858746503528714,0.04577022477200162,0.04753076384838372
0,0.02010385937743116,7.28,7.27,7.41,8.24,s01,0.024618012564522916,0.02916636938577172,0.024247186262528968,0.032986043345974915,0.04757316533784231,0.046133968614994275,-0.0001780619988077653,0.045887910961208596,0.0584113348971356,0.039883692641007204,0.0238597508315202,0.04170594961157348,0.045305572416549394
0,0.0445511030075246,7.35,6.95,7.03,7.29,s01,0.03937177909047972,0.04462128048820927,0.04249824635068288,0.037792002109059045,0.05251361821827139,0.04411153291401101,0.011244721998248037,0.04666279706739849,0.04004131241848591,0.04597763342964922,0.03870923100856311,0.024963189545557193,0.04760594896804133
0,0.04506461530699771,3.88,3.35,4.01,7.87,s01,0.04271375102208076,0.043545158823630026,0.0442788244190073,0.03857000710671404,0.048546383434668605,0.04705574951673812,0.0070579191795866044,0.04433348806280838,0.04779854981872679,0.04711901361780958,0.044237226113341,0.04442069781453998,0.04670604646654064
0,0.0422911865669384,1.36,2.27,3.0,8.14,s01,0.0414327353761907,0.0465675784232922,0.04447062132053809,0.04151093123251926,0.048945864161154484,0.04832815111131603,0.0026951070417435157,0.050634691410494995,0.04090272376411835,0.04216875799915238,0.04121407458656706,0.04512513409879875,0.04744410801650895
0,0.04481604153052319,2.08,2.99,3.22,7.33,s01,0.03223007477157575,0.04533434147225286,0.045519860346514535,0.046939701962291816,0.0501209813849371,0.04871904132957748,0.008355909702824496,0.04722394148508703,0.043378122856742515,0.04137490632241228,0.045114348257394715,0.04166994387643375,0.04510467957733274
0,0.0402052820774546,3.03,8.14,2.86,8.04,s01,0.024782706268926164,0.021783024119579924,0.038110300950836645,0.03377913938376401,0.04334511213135295,0.04665422977361471,0.002756451723868135,0.04559412343161453,0.044725524931025745,0.041304385662078814,0.04361977792323985,0.03960260299214138,0.04352190431795617
0,0.04703095470155994,2.28,8.0,3.27,3.95,s01,0.04577952453068329,0.03786168634654254,0.04273821157321591,0.046306192157860165,0.049680884709035644,0.04819858145893077,0.007083374649378512,0.04994995907733326,0.03854993746271183,0.04718663298097772,0.045908022733559324,0.045321108524064437,0.04896479979493573
0,0.03432529397582337,3.81,3.85,4.78,5.13,s01,0.03949269790982093,0.01940509239276798,0.045922269996791484,0.03903602508076443,0.04834875388253015,0.04609241387001559,0.0008002184881953147,0.04371561000221648,0.011528526986395478,0.03815789431856385,0.018296163160722176,0.0236436604766406,0.04244987426843866
0,0.04499036978958251,2.28,7.09,7.28,6.92,s01,0.04428334639484731,0.04406086780074852,0.036725550349546436,0.04108439352279318,0.051198588995109005,0.049963995567838135,0.016673804731929864,0.04873742268497787,0.04951260299013376,0.0435983737309773,0.04571257910334081,0.04527691674411756,0.04629889466708773
0,0.042953321001583555,2.06,8.15,8.05,5.18,s01,0.03492709494754841,0.03831174093134263,0.04641842229067919,0.04425818337533718,0.04457531351792183,0.03743063907926982,0.008900942571146011,0.0383662679247074,0.03977400043554467,0.044744008107292996,0.03713257583776764,0.04319709862085221,0.046207416326479914
0,0.04127377878155616,2.9,6.92,6.5,3.87,s01,0.044752540893124526,0.03598507045908663,0.04353870753955132,0.046125275568854596,0.051855542516349974,0.05067403038641569,0.00617907782949293,0.047910190704173676,0.04672993027177976,0.04584882071143714,0.04609162126268665,0.036775047565023214,0.045827175441541225
0,0.043934302222459885,2.31,6.88,3.1,6.77,s01,0.027269735316726065,0.04027529348406869,0.04444991932775747,0.043682516666880784,0.051383041439199896,0.0499798412609818,0.005934979234422918,0.04801611156391923,0.04244632449066424,0.04334456167722999,0.04223777306707278,0.04468697614239579,0.04594420275293796
0,0.04405588198425184,3.33,7.18,6.54,6.62,s01,0.02210951930164254,0.03746729231717285,0.04032376565431288,0.03698882087570856,0.04987310529651505,0.04166719250212942,0.005734498040717896,0.04440967074611725,0.04170683475962852,0.04078751807716876,0.04463180922027822,0.038782623357940034,0.048458967531534114
0,0.03937831301438173,3.24,6.18,7.87,6.15,s01,0.02058030676654004,0.02848022758639525,0.03910726308822628,0.038370702977766,0.04334847676126575,0.048199820697755795,0.005875478428960012,0.04594307044394935,0.04110390470738993,0.042869556995860245,0.0442532153954184,0.04059091743670003,0.047697539437086114
0,0.04459062348631093,5.1,7.12,6.17,5.97,s01,0.03220927786048865,0.03407820100965671,0.03529748864956312,0.04090705419841558,0.048547397341047106,0.04871688498590235,0.002865700972707509,0.047282851190495356,0.04479371506468699,0.045490967958493424,0.044797575742678584,0.039698037348295405,0.04631363458203202
0,0.03515187941099462,9.0,5.03,7.13,6.62,s02,0.01067499304717437,0.011962521018095052,0.03394056547536942,0.012211117690464204,0.03825814012895545,0.011922818379854417,0.014336235873348896,0.010471498093515004,0.013449273173800945,0.012177177538742968,0.012142886237611792,0.01204205690182941,0.013378164184464391
0,0.010830280160004204,8.01,7.1,8.04,8.08,s02,0.012768323682389117,0.012093683106201025,0.04960155584374245,0.012376880825690516,0.023893060296424663,0.008821311806732715,-0.008845372086320231,0.013076988820239372,0.009939217549449942,0.01378632597499537,0.013379519424681584,0.012745055760790021,0.01315647459929837
0,0.029747823094110247,9.0,9.0,8.96,8.05,s02,0.006428552032889741,0.010270010186886513,0.024889671424623835,0.01179908448128231,0.027336436355606446,0.010360520524798715,0.016180999243437334,0.011205019474581128,0.01066476922664996,0.011905220355627572,0.009888097764532592,0.009427483526326814,0.01175668624860065
0,0.015962124998505148,6.05,1.0,5.04,7.03,s02,0.017833132035023524,0.016279416954195238,0.037582417956569684,0.01767908141419705,0.036443965058577665,0.01560707369390523,0.004850770090962238,0.017165163401011006,0.01664611811589697,0.01721750822934225,0.018011056172727292,0.017462869244392394,0.019827804533211067
0,0.011922235519286131,5.04,3.0,3.65,5.04,s02,0.01328666396060227,0.014045751679618374,0.04342449428443629,0.01239632100475056,0.030639099285545632,0.014567668482942315,0.008837731199208151,0.01175855519820205,0.01424939519650236,0.015569254425336698,0.011062386571144354,0.011303561074392897,0.014636193695714892
0,0.018037542298033466,5.0,4.94,5.04,1.01,s02,0.013923140871958246,0.014719951521675547,0.02017308389297626,0.013963552151086175,0.03699127829533566,0.0162635825535036,-0.006826333188817528,0.013882149554587754,0.01606294502402247,0.013931369942587911,0.013436732166218256,0.0128667232152579,0.01393074996516381
0,0.04385072611328359,4.96,1.99,4.08,1.0,s02,0.008647331453719197,0.011689492813156071,0.018882729308773608,0.010852049341977654,0.043278821070391466,0.011763489993113324,0.005512117505907107,0.01143160061215828,0.011527682646265506,0.0131627453996038,0.009994276194792285,0.011138423712994614,0.010795158217093467
0,0.027035437824483206,9.0,9.0,9.0,9.0,s02,0.013317587539235055,0.010416333309755645,0.016404029328053443,0.0131074891896742,0.018466009680680365,0.009268655998679124,0.02017041794339532,0.011652368528368139,0.010786568935238244,0.010210666656494064,0.012967804821859682,0.011724649943525761,0.013670905636721893
0,0.03989018933814864,9.0,7.0,9.0,7.18,s02,0.01134024965538172,0.012931670371986337,0.030207631616736768,0.011631881385236277,0.031334517979150746,0.01243551487237894,0.011507116664539515,0.012016655903942129,0.013529872956864041,0.013359478356703222,0.012292870827440882,0.013035313574437242,0.013124954331595946
0,0.01298209461005966,4.99,1.0,9.0,1.0,s02,0.008241314790686571,0.010760682237966224,0.04104614492138624,0.009049715801161018,0.03799228082623394,0.011305404807036743,0.031875945471383504,0.010623189311916553,0.011438084764300685,0.011987356113937633,0.0064538975961447725,0.01058281782829204,0.011469267424890477
0,0.013076484824126596,7.08,1.0,7.01,7.0,s02,0.010252719726302328,0.012507027796604762,0.023464065257685327,0.011833393090480196,0.02813795807730509,0.012146066001259816,-0.0077725084204422505,0.01297974148447424,0.01334807691298744,0.01288240616386016,0.011928726293272934,0.011347845257453144,0.012016386921341446
0,0.012950858071043778,8.01,6.06,7.12,9.0,s02,0.013799765604374558,0.013043524577995697,0.02808158245336283,0.011526307383099213,0.030774828406948854,0.010887665946528593,0.01761611686958056,0.011862679679438715,0.012944347231764408,0.013689172780738655,0.008645856145919147,0.013139754149873333,0.014512176454825684
0,0.035443203631674865,9.0,4.99,9.0,9.0,s02,0.013658053471794402,0.012521370457583659,0.04830569632218507,0.010569750046243331,0.03088777362612044,0.01351198727243341,0.03220489913342026,0.010275728848515565,0.012641607748495686,0.01318042607577339,0.011192063396259777,0.010078145046623249,0.010627750961147797
0,0.037114117438333004,8.94,9.0,8.97,9.0,s02,0.010620793036694718,0.012382889088951335,0.030787494265890846,0.012029947712736178,0.048788858425768133,0.011339301667123443,-0.005858931469936162,0.011682848372549407,0.012595034257420949,0.010628960087614228,0.010221297246105302,0.012253686914204325,0.012301761915098913
0,0.03538432079449027,9.0,8.01,8.06,9.0,s02,0.01340100004826555,0.012139260120770785,0.032815087659686056,0.013197622242187103,0.03892657163834554,0.013354491373998287,0.02801824404781046,0.010234539849417296,0.012107188998528202,0.011351844587841635,0.012858590287128694,0.010114952982688255,0.012521357051396755
0,0.011831713206059326,6.0,5.05,8.05,6.14,s02,0.013855815255591371,0.00941234656742628,0.022813028835769366,0.010686758170693695,0.025850957752304674,0.011975741359594751,0.018521384657225286,0.013615099288669661,0.009257612997077091,0.009717934472220106,0.01356439387251219,0.013537156411776588,0.013313881987232237
0,0.019038556681738827,9.0,3.0,6.03,7.41,s02,0.014715292413355905,0.016007695036419356,0.01906156130511335,0.013701930824590978,0.040696069650482614,0.01551400593348894,0.009071169296900645,0.015772802708512532,0.012939112330322751,0.016005973558168202,0.01493537466404797,0.013399401489569007,0.013514585884249723
0,0.016912800013416798,9.0,6.15,9.0,8.08,s02,0.018825146616721376,0.016336754876739884,0.013908919833955206,0.02066511259240615,0.03879102120335508,0.016438045695021445,0.023232185840606847,0.01973064551919193,0.01880429693170512,0.01766490384331754,0.020593027408058472,0.019218505073238,0.01808579030640089
0,0.015724080861216776,9.0,8.32,8.06,6.99,s02,0.016322125449325004,0.01627093054152827,0.01707910573160336,0.017110915280677333,0.03206088064510392,0.018483837084336614,0.03317561850828267,0.017523843110209613,0.01848160850035193,0.017873085345862037,0.016935434124686396,0.016932847854253526,0.01733959381644801
0,0.012929657173816727,8.97,9.0,8.03,9.0,s02,0.010872962555795281,0.011913851072203403,0.037955108441804566,0.013486193636181554,0.03182636376127138,0.012789688146339217,0.015078132802789808,0.011471522061329882,0.014048452050130654,0.011647993771535022,0.012730747338399663,0.01135304692106425,0.012000742462446085
0,0.014310951007379141,1.0,1.0,5.04,1.0,s02,0.014763940991582129,0.013017381526328522,0.033379904362333956,0.01556661853919167,0.031813686035338275,0.01258958208336017,0.03176008946455573,0.014947887348678796,0.014329392127270949,0.014326179349744748,0.015254031883095693,0.013458631489728033,0.016388001315998584
0,0.011942217161070546,5.0,1.0,4.97,5.0,s02,0.016117088499558275,0.016702704951448207,0.03946347320288942,0.013617065884140007,0.038961315991585636,0.016083633416407915,0.0322504269449334,0.013492342473343492,0.017968770136704382,0.015399606002343726,0.01638809847546685,0.016092035810826136,0.014512961737963398
0,0.036479128034491236,1.0,2.97,1.0,7.82,s02,0.008282082107831797,0.010420520206404101,0.030880375492104744,0.010940717587007872,0.025741463916789553,0.011099344163429045,0.027700772652259217,0.010879730346902736,0.011449818580750327,0.012394391153919776,0.010518175321077669,0.010805064880047743,0.011696257437486724
0,0.01379383737976495,7.08,9.0,6.06,9.0,s02,0.011104751312647605,0.010583205636942199,0.044353710081344394,0.010068019507066223,0.036097708554038,0.011225929152290736,0.0022391832490061916,0.011809367207404414,0.012705861650516195,0.012941190487532967,0.011394167599000322,0.011577738506944936,0.011967947655596596
0,0.016002260833173285,9.0,9.0,8.1,9.0,s02,0.017569204508248032,0.013720863206045774,0.046565290013203545,0.017744043075432172,0.03916356856362858,0.01612166536820914,0.02280700707377515,0.016517705109159807,0.017856591617738993,0.0183698953808966,0.01753700676610913,0.016850808757846607,0.016122310988756872
0,0.01607813593503595,9.0,8.04,9.0,9.0,s02,0.011063794297991958,0.011400624077275158,0.020567688013520272,0.012404578499874792,0.04026959277035892,0.01379061925636144,-0.012201370980575447,0.012114075806181355,0.012942546556580673,0.013611494496183528,0.01294483643813891,0.010234498004523801,0.011686498354065999
0,0.01930358273545824,4.96,5.01,3.01,5.05,s02,0.018198432170236735,0.017210483189785002,0.01813230538609037,0.012971396085467476,0.03615584920750742,0.018242612872460758,0.023341491885651496,0.015266778517742285,0.019149753782484104,0.017425866223670428,0.016822760953741495,0.015120062536122638,0.016029460576115526
0,0.013569340579914586,4.06,4.97,7.14,7.04,s02,0.009657900674002337,0.013062487961562768,0.027705888733485673,0.013194932807093494,0.03164726482561761,0.008821547761255155,0.01646867665377515,0.012345651011645224,0.011343907016818791,0.013548411185883489,0.011802266573501793,0.00874007050182254,0.010197207392478303
0,0.012118901272077915,2.99,7.04,7.03,9.0,s02,0.008046489499649858,0.009136434159188907,0.04278642234945665,0.010656425869773181,0.038798061170076004,0.012582392249162728,0.01061555334165971,0.010818381411420344,0.01251548079457397,0.012199434496321711,0.010502276681628899,0.010528524850788762,0.00988695367777116
0,0.011685432453413396,2.01,7.05,1.0,7.13,s02,0.009542631174301496,0.010627058413219002,0.043210397447858595,0.009350398677890484,0.04490414856387203,0.011575529386412353,0.015624986028975017,0.007772772652762058,0.010748648841426062,0.011568083135563964,0.00886839292817187,0.007509025262326346,0.007840017396576315
0,0.014550794817366668,4.06,7.05,1.0,9.0,s02,0.012847741668394988,0.011538025730061036,0.045871600047067945,0.012323225129325396,0.04549599713109252,0.012453273917144167,0.024998698915753913,0.012068707520106975,0.01263860177094078,0.01266109023903896,0.012929534483009486,0.011836006524427832,0.012555508487629357
0,0.013445009250898724,1.0,9.0,2.01,1.0,s02,0.012496292255860703,0.01283524918743947,0.03682337309184817,0.012637510968363061,0.044940427924325295,0.011344970457107743,0.04038338446079358,0.012579705235123854,0.010284434552462573,0.012934444391502473,0.011469386478639975,0.011639787853888679,0.013129848999435275
0,0.01570614672995914,5.0,8.03,3.01,1.0,s02,0.013090711834281281,0.013008905626692753,0.016592083106169924,0.011902257451471292,0.04812912607402857,0.013705498713367409,-0.010125711379263842,0.012724841135852639,0.012924860828327597,0.013880584317733962,0.012365232899503791,0.012702872582201619,0.012271971720569545
0,0.03826646219220077,4.87,1.0,6.99,1.0,s02,0.010799556534791754,0.010061225821384525,0.017596011086711737,0.011175239850485085,0.0404532491368709,0.009179791216998648,0.011337560164060536,0.010132177340032213,0.00763094185883145,0.010588474742115495,0.010286984525908621,0.0098397913254464,0.011399286983162392
0,0.014904491942037227,1.99,2.0,1.0,1.0,s02,0.014347681225470732,0.014041191661680115,0.013306940890647299,0.014234664955654782,0.036894709603828214,0.012956832067386582,0.011038771141787983,0.01515880750260259,0.014988082309938757,0.014881532741042758,0.013875709031079334,0.015278556535828701,0.015168549591640192
0,0.04806130445456199,5.04,1.0,7.09,1.0,s02,0.00915630729984238,0.009112506490277525,0.030347001494585253,0.009460514298886969,0.027943401144564572,0.009341485275952199,0.015228536075219276,0.007360788741201688,0.009825646676148237,0.010484644076687314,0.009226564570764071,0.007053037079012964,0.010183909657209734
0,0.014533372827478443,1.0,8.06,1.0,1.0,s02,0.01087076226059256,0.010867027360565598,0.014762685911075593,0.011617054744642483,0.03326582202126839,0.013970482639028687,0.05828249454498295,0.010859568265019274,0.01357303491394532,0.015605209808091994,0.013221897513179494,0.010566174698889692,0.013949503252061684
0,0.013728194784473848,1.0,9.0,1.0,1.0,s02,0.012801717614227845,0.013479964814096022,0.011807304166397931,0.013545289093593317,0.03017499485412307,0.011924815339862158,0.04028488125717408,0.013503479147857041,0.012884764257466983,0.01443674499924128,0.01226139535775069,0.012937735544668738,0.01396968118199761
0,0.014658100092186072,1.0,1.0,2.97,1.0,s02,0.013828059467109525,0.012992172144554863,0.03636082055275888,0.015137644877304995,0.03693922695360677,0.013326498715382624,0.036445292135826764,0.015011229480135625,0.013630083444956297,0.013959797975179416,0.011532621967549058,0.013740055359016031,0.01410231284193103
0,0.04470950356103433,6.05,6.67,6.94,6.53,s02,0.010465952567334371,0.011267988101856209,0.04004087406292288,0.014035631844198941,0.038697850495053934,0.012730021566714794,0.008913666248321366,0.013348150664516452,0.013638326968786871,0.013366640798599411,0.012466776357592729,0.012824624631571982,0.014224618528056374
0,0.04041346123344013,5.33,4.67,4.97,4.45,s03,0.02238535828642797,0.00793559997324016,0.012373917489438533,0.013329539220342874,0.016521023014399023,0.0246644243693578,0.015858291136438985,0.008717373466062555,0.02169510699830068,0.008481605069933125,0.009054758864303637,0.010546980969772548,0.007780303487237892
0,0.03789630793688581,7.21,4.44,5.22,6.23,s03,0.017210965081462755,0.006231357061688581,0.014456583095046641,0.01109959048145217,0.006320580633382918,0.023641846983851893,0.015055683202910657,0.0071177268949035154,0.0062585799131761564,0.007081655871345059,0.008424459837508268,0.009168998597040918,0.007635635877308138
0,0.03840471443377041,7.55,2.81,5.91,6.81,s03,0.04966714406500056,0.008483054041638979,0.015927318946735367,0.014867039043267655,0.009224366462315533,0.020325984597549616,0.013760041114979296,0.009282351031837959,0.007746965285316568,0.009388684600669786,0.00828630105504444,0.00928813480881023,0.011249166863394597
0,0.04411535989072993,4.69,3.69,5.0,4.19,s03,0.02759328079982262,0.033409375186059985,0.044887107028100774,0.0353399958034788,0.027533993709995815,0.01773300291673334,0.0008428880384749784,0.03329887953230579,0.028618505437281706,0.029557601378335276,0.032687615473045877,0.04880040308267727,0.038210260240655144
0,0.044102527862204664,6.92,4.44,5.56,7.17,s03,0.01930026824657721,0.011256479841517543,0.0375924482680203,0.014485737783076416,0.017993478512200765,0.02241115203270551,0.006516807957699432,0.011414909568403167,0.02131758856154998,0.010382179557762996,0.011850052394802519,0.01247705271684763,0.01240216514614571
0,0.045407335023234734,6.79,1.97,4.38,7.32,s03,0.022147718561485764,0.015192410540929256,0.017801246016916464,0.016610551041525843,0.012257236061267735,0.025898304112850063,0.019678046291035912,0.01467712546294584,0.026997363013672955,0.01231657715563498,0.014384555333369615,0.015167503421371116,0.013344303015116249
0,0.038867629201788566,5.45,3.01,5.04,5.79,s03,0.037747917856489,0.00868825099153335,0.0178179028871898,0.013225789196086373,0.011294035326911506,0.02775961250900333,0.009308088990978866,0.011199196760780418,0.010004158139809809,0.011879626266241972,0.011364013548866285,0.011933900329295092,0.010893619501365664
0,0.04325362219846347,7.14,4.33,5.74,6.35,s03,0.04014166213653901,0.0068009771311057865,0.01639058251638681,0.012790985173420076,0.015403713290974293,0.01782187393733419,0.010757473536900139,0.008151592578527959,0.019625922857169114,0.008978657298737078,0.011592638997670381,0.013875926349955896,0.011422836427434682
0,0.037212277295296595,7.33,3.23,5.99,7.78,s03,0.015053007562281756,0.012224787265833256,0.012538530601645346,0.012589049969079301,0.010515318455032684,0.02399996820386955,0.003952920645998198,0.011875652399767461,0.009257624736652764,0.011847432382910347,0.011814371717972835,0.009624207082784289,0.012524259372020247
0,0.04031297407652194,4.45,5.49,5.71,5.23,s03,0.025335374599179727,0.01598098315591882,0.04003822510702556,0.012355556370034566,0.02047321281103304,0.023249474200573664,0.007932177880652976,0.017421542103007653,0.019524991230701776,0.022258533249670868,0.04869473223783536,0.02317269542375283,0.02481274089483428
0,0.03915677133359397,7.94,3.12,4.23,7.1,s03,0.039856370464786114,0.016842107126268237,0.03857509420629125,0.03850635138827578,0.016439162464592347,0.018889622373895232,0.009608866756123833,0.021316201954822256,0.017331477976220748,0.02008475089279295,0.020705571779256592,0.04284879395530616,0.02571948436642103
0,0.04517216350054291,6.36,3.15,3.12,6.29,s03,0.019876323159285416,0.008281663333962859,0.01556580517743089,0.012181379930028331,0.015050590967727992,0.01786916334550447,0.00936145280536865,0.009256896339734002,0.01733518998453933,0.018070039223498206,0.007606247092192965,0.011728483503303692,0.023796659587783073
0,0.04245805632799197,7.91,2.97,3.68,6.99,s03,0.02418224837753806,0.008249247838461145,0.012651184442881042,0.013486775111115012,0.04590054568926206,0.021164773392865,0.007555430395561286,0.006773748541777871,0.015300674438476576,0.016298326718605254,0.00971722625193177,0.009618277387798914,0.022298877658349307
0,0.0382965867979484,7.29,3.86,4.4,7.29,s03,0.025377352159101918,0.008235821931336193,0.016071135227126197,0.013780821098471492,0.017226373679994612,0.025149780315357327,0.017717926484301844,0.00892612323539275,0.017094741514173596,0.0074344864488764635,0.01065422512414883,0.011350015496307996,0.008691158507439735
0,0.04666787496729865,7.36,2.92,3.81,5.88,s03,0.049815918961349744,0.009557872753622363,0.03873652073374956,0.013528081107595496,0.019546137213363443,0.025388578585314084,0.018901618321736487,0.007799561086690596,0.020135017705582063,0.020788191168727328,0.0113813582099596,0.012027412127769106,0.0273623477504104
0,0.042802437266012884,7.15,4.37,4.03,7.54,s03,0.02586256463450226,0.008498816173712167,0.011220592138902145,0.010984125636157556,0.007714091904564725,0.024082579455532764,0.0032457071192124494,0.008869801382916532,0.007777089924234741,0.008882029341721607,0.009110334261910899,0.009451510712230519,0.00848796463012686
0,0.04477117662142991,4.56,1.78,4.1,5.41,s03,0.03521946528378654,0.021485716465227192,0.018094317494212062,0.013226221381007057,0.02007684970465229,0.02619775842941201,0.0023567759907327274,0.02627181841649852,0.024586412702917147,0.02430459752206499,0.026668182452091488,0.04188866320902591,0.028816358291218733
0,0.042858113471726765,7.1,2.13,5.04,6.32,s03,0.024060255092578992,0.010484549719428147,0.011779920797090341,0.011469716639132222,0.008522226384037336,0.02338565312899074,0.007286236578957924,0.011731617049326848,0.00938496694253713,0.010568755862862064,0.010503138668132293,0.01308367736875034,0.011673395223370745
0,0.039311375534325246,8.14,3.17,5.47,7.97,s03,0.05027828727449693,0.009354766917678463,0.01642557892709405,0.015064723588325026,0.010159922531136428,0.02158893212804878,0.013718849554994144,0.012783347107651565,0.00965742515990201,0.011697548983201574,0.012086834925525609,0.012357647032351239,0.011103809860517323
0,0.04525367514531424,6.26,3.13,4.32,5.23,s03,0.020309988703439134,0.04988353447038296,0.045182826823758106,0.04905434294875803,0.020947367107490292,0.026345885011028306,0.006023850476831448,0.024989019690741677,0.04406740862604585,0.04899580424344991,0.03204342489149046,0.031241221851819687,0.048051983193995486
0,0.03810097815697649,4.99,6.44,4.54,6.55,s03,0.030642405896125175,0.020934097842455562,0.014739090365332616,0.015185870791715137,0.020765216618518663,0.016187921697605814,0.0041631796042616255,0.022496887998553396,0.022099019539802797,0.04577601928835462,0.026078691689332398,0.027770093780069133,0.032704111407784765
0,0.0362134903524366,4.94,1.0,4.13,6.21,s03,0.019933223161171708,0.009537956130875474,0.014758535011394699,0.012091641911920477,0.008015700883082228,0.021881778409161876,0.006359303983530769,0.01052706899560696,0.009246648095455938,0.009709840729122962,0.011114782280451619,0.01193868599896303,0.011690148665389071
0,0.04692375128153981,3.65,2.5,3.03,5.92,s03,0.024596654974193676,0.008774505378514243,0.01308157780485332,0.010585505460861275,0.009029532623147901,0.025764266864012078,0.009634069810833663,0.009332520576465537,0.008683414865085335,0.007642507841002254,0.009503910592489942,0.008810291497681338,0.010861864240150638
0,0.03894416261137572,3.31,2.27,1.91,6.78,s03,0.021742455553939756,0.006928042208696846,0.013302705255714746,0.012093937481929072,0.01548320366164395,0.017627068928309758,0.020715701311154647,0.0072500517987828935,0.04471166202405278,0.01900259012447651,0.008459616163315878,0.009530604042093174,0.021916586521379528
0,0.03859845399856559,3.45,1.41,2.9,6.87,s03,0.020504446057146453,0.009998993431980905,0.04254099988100825,0.01334769488006738,0.019610019556180646,0.0220582455654309,0.005958419097097495,0.009974425590838313,0.048368783386386234,0.008187917097559524,0.01027524350598636,0.01085300574286581,0.011391600330625811
0,0.039222840886366926,4.67,1.18,2.64,6.94,s03,0.018060146166583656,0.017626060087849706,0.011391737678573337,0.0128924411738638,0.016157300453486366,0.03162502322777092,0.011449391381782104,0.020134654512322967,0.020123412835838468,0.018564560094217666,0.02133444063258098,0.048581391451310164,0.02438720452776304
0,0.044359357016427244,6.72,3.29,4.46,6.22,s03,0.02015553703458292,0.012744506476060354,0.018451531005628134,0.016870239940849577,0.02772606728411583,0.02467345607383787,0.02061739326419693,0.011795972327928348,0.029533907392559077,0.013179303869398275,0.012225450535078406,0.014001009491254648,0.012210966445304353
0,0.04411803618409591,5.59,2.51,2.65,6.59,s03,0.019156935834509163,0.00906358864519062,0.027723470620078683,0.015913371589240066,0.011128327806117203,0.037160211509757936,0.012913616916589375,0.012011792942629045,0.015920517200560043,0.012669465824709087,0.011099506957625828,0.012046540147167184,0.018607922426358947
0,0.04298345953002016,4.47,3.85,3.08,7.14,s03,0.021413990400023033,0.00791992356642231,0.011847349598601103,0.011455211387490326,0.008539859659447339,0.025819005738596804,0.005037915079216965,0.010641550052286652,0.008887241742205905,0.009339904177264786,0.010488182228068207,0.011653433723935928,0.010978463798325507
0,0.038455771563345884,3.87,3.09,2.72,6.12,s03,0.01710044436567414,0.00832072612181726,0.012511588753880731,0.011297143663321144,0.006905765894606111,0.01715855191393599,0.006436648404687957,0.008350319123956368,0.007268780217351256,0.007829754013759467,0.00852875674669333,0.009105710979700454,0.009879701764207185
0,0.03893442258500208,4.44,4.06,4.63,5.0,s03,0.021350932768034993,0.0067455315348535294,0.012221349824149642,0.010258901731593294,0.014650013325578047,0.026219387772696924,0.012003355456474251,0.007301829841908338,0.01573722062148443,0.015095607877716292,0.006943617995240286,0.008377820845619253,0.01993653135975514
0,0.042141740124924776,5.17,4.49,5.91,6.55,s03,0.02061637904527208,0.00921925034109991,0.012805668521919642,0.01207494963677037,0.02099615428220985,0.018814954128894012,0.007286402057198924,0.009426958783538995,0.04314759156390036,0.00960895444822075,0.009477780828057503,0.010456952523058696,0.0107531897083935
0,0.03891612625958622,4.05,3.83,5.5,4.99,s03,0.028671416351117203,0.013393531411381155,0.032110896272925064,0.022447195108067343,0.014824347900132033,0.023304431280607867,0.003260588227656678,0.01734559573526456,0.017274494332782317,0.018197861994345362,0.016297561352647198,0.01815627015481784,0.020686555847408288
0,0.035838940379789415,4.72,8.12,5.85,5.33,s03,0.019405514424241398,0.008315603474708845,0.012852501502678852,0.010226915380594469,0.015596306041135675,0.02560217956920237,0.004434422084263289,0.009156437236627053,0.018094350784782325,0.008684249061924788,0.008701808541108018,0.009311832021048747,0.009457926424782277
0,0.04575335739764704,3.18,5.04,5.65,3.15,s03,0.01929544238593633,0.006011686121250737,0.012915181357905524,0.010034588110057974,0.006410405436481,0.018217305560688242,0.003889401514727494,0.007287726582862141,0.0066977003606732335,0.0076291656780206095,0.007173931013120855,0.00812891850902378,0.008785546697567122
0,0.0388257700100279,5.01,5.5,4.54,3.86,s03,0.02215431141922042,0.008444038139199295,0.04517232131702327,0.012423022534396292,0.019470547691104893,0.026868731825501597,0.013224470406247604,0.011265771595511752,0.025661079829125227,0.023715940401258642,0.01212444804248441,0.048815241765372365,0.031009757745482185
0,0.04383914587192971,4.92,6.05,5.46,5.26,s03,0.029389791829245452,0.013627406743567765,0.03321923011702184,0.022716213784231526,0.014871558658147219,0.027105545809229047,0.006464328805236443,0.01682480432855801,0.016973352995444446,0.016289889155410447,0.015031304197796299,0.017985243496932365,0.019214144841892565
0,0.04365541056582809,4.53,5.68,5.65,5.49,s03,0.021428912654733786,0.007277360783116623,0.03821369095852493,0.011475936321448776,0.007464278580143832,0.02459545474435412,0.00719182867752857,0.007290043230131792,0.01780675471298335,0.007091505633877265,0.007909766108881475,0.00908320728741111,0.0080538483474153
0,0.04383719621744374,4.33,6.21,5.68,4.62,s03,0.023528459045913205,0.014690914477332265,0.04156888155050053,0.032269944162929595,0.01710636559433821,0.024271748045335908,0.007849139378483264,0.01747894906622219,0.019036029642961232,0.017225254051328603,0.016432537790072168,0.018711925491573318,0.022295269567616013
0,0.04388636108627901,5.38,4.33,5.67,5.29,s03,0.02455207360595316,0.007197777698403787,0.014218666064502276,0.011157651630554561,0.015589649151947596,0.024620840322730854,0.004025798931456436,0.007691663930511661,0.016735361880204754,0.01827615970149848,0.0080875248599686,0.00921738330996979,0.008407367361946114
0,0.008444770992926827,6.68,5.03,8.22,8.14,s04,0.01373573252839856,0.012306068194588205,0.011755872834403464,0.01253455200710818,0.013231026308340577,0.012258583284773876,0.01994184611136448,0.013306445355685224,0.01229798683456308,0.010673319484394555,0.013498631853890868,0.014071398340989642,0.012259333693654655
0,0.017528651455255995,4.06,3.31,1.99,4.05,s04,0.011099220275878818,0.010850963898262886,0.011221387299608051,0.011896365673120926,0.010547750980432891,0.011544370454574286,0.024045266244644606,0.012163153247168051,0.009905244868750109,0.007952971587164976,0.011657762134124219,0.011866767888306777,0.010480726931843244
0,0.011246040848066189,8.95,8.1,5.85,8.12,s04,0.015500395362441863,0.013294950233315487,0.013795031853441818,0.015713735045613606,0.012976598451722244,0.014997342019710905,0.002247183463152702,0.01496784429292429,0.013990022781237477,0.007239277281851137,0.013339859408301414,0.015924926253984544,0.014301457206631627
0,0.011926360328242427,6.1,3.92,4.19,3.94,s04,0.01360684762129921,0.01186262755780615,0.012924841610161152,0.01364194734676476,0.011977148539311276,0.014394941365943643,0.01025299093777091,0.013558440917247078,0.011812252728444123,0.011750061395033293,0.01424056862885093,0.014382079163113227,0.013604980828627058
0,0.01314443037644862,4.06,5.04,4.15,4.88,s04,0.01721324888435582,0.014940695827071868,0.014679717695390988,0.017178152380763,0.014810288435704132,0.01607830041163685,0.019880214096715216,0.017616731031885702,0.015447113325011018,0.01300105350422407,0.0167681437078511,0.015888894893027694,0.015339464043671237
0,0.016986017698769805,5.01,2.95,4.04,5.09,s04,0.015938950878078582,0.012089433023485066,0.013338123903436215,0.04960633443326364,0.04880435710050613,0.01396381394337801,0.00794423923157788,0.017555283373735103,0.012805460590427208,0.010307095172041581,0.05028419445972046,0.04979668588054418,0.014242477968248918
0,0.04857280984216799,2.94,1.99,2.92,2.1,s04,0.04862723253211199,0.01396328974578345,0.01493575329586808,0.02055293723554361,0.014909910589961706,0.04841534653488469,0.0023912275644174886,0.01894972643514323,0.04836861406053811,0.014184183961763155,0.015553450341952093,0.019048270465820815,0.015091487178652354
0,0.014974590173856505,5.97,5.05,7.14,5.85,s04,0.01087262507990394,0.007955579932906085,0.008471615715870694,0.00783095291425594,0.007509927513628821,0.009837379695147024,0.009476000587251945,0.0495698296293921,0.007730512794234159,0.015298197633129028,0.009143717690357914,0.04932195848348201,0.007174635451967161
0,0.009419808711035831,6.05,3.96,5.06,5.04,s04,0.01165203071954674,0.008210837427263836,0.04768697151399156,0.011860163898791383,0.009876180180048601,0.009687000694921396,0.004086947620363331,0.011483896404829661,0.04816984850883785,0.04783197067793616,0.009133728307487463,0.011950909081151973,0.009535306186999304
0,0.00959694434696242,3.15,3.99,4.12,4.04,s04,0.013071253506642441,0.010717056375967605,0.011112288584814518,0.012346988677978425,0.010289359012256112,0.01298191666290192,0.0045329986658313335,0.013081678066613466,0.010659978235085228,0.007752848243641786,0.010798780477271943,0.014326779011889805,0.00992434231315063
0,0.009691485537989077,7.24,7.08,6.08,7.01,s04,0.011039278354284797,0.01115053259660377,0.011995690388316396,0.011377852205960225,0.011982651028599063,0.011911382020793603,0.005123918753282203,0.01272527363401328,0.008750647958719528,0.0093278840636777,0.012270277611182104,0.010398829694064136,0.011376837643514975
0,0.010886976144087528,5.04,5.04,5.04,5.08,s04,0.01165553610851295,0.01004042868711481,0.011624429882697268,0.013520162618385146,0.011566196045785494,0.012795427718252497,0.004628722111981925,0.013429319057824374,0.011397141474597859,0.010263528008562808,0.013995318632694327,0.014139171839207262,0.010195912918954471
0,0.010782604901295836,4.12,4.88,5.05,5.17,s04,0.013213982453217388,0.013079811805278669,0.013599548350571105,0.013088759860476914,0.011272596647154576,0.014083275421308352,0.015400132051774785,0.012542772293090884,0.012971836974391015,0.01102911339835985,0.012837607761598917,0.012395935123031294,0.012636023511768535
0,0.008920913912215389,6.96,6.97,5.23,6.21,s04,0.012915586507545318,0.012741358753085637,0.011680702209472715,0.01302664112594884,0.013024640163769122,0.013818119990946258,0.0029149349998023218,0.013270822992864627,0.012209816420619036,0.01095406567509531,0.012018016023455846,0.012771093620444185,0.012514218794168494
0,0.014627940912504522,6.96,7.05,3.28,6.97,s04,0.021566774027108604,0.01958712487567799,0.01999281214405781,0.02153821304591003,0.017832642613035153,0.019506270716888617,0.0131173380160866,0.020816320963579993,0.01869552677327924,0.013512152006041334,0.020027537779374372,0.019228608439666915,0.01841241928062033
0,0.010252971844295081,2.51,2.95,1.08,3.03,s04,0.015319956365621277,0.011640002776165169,0.011661701299706019,0.0141788000996049,0.01469085839922889,0.012192590869202675,0.021001895746790553,0.01416234599577425,0.013292121321468038,0.009565915588365434,0.015289545886727055,0.015002818593439054,0.014609269869635467
0,0.012432388388623183,7.01,5.95,6.04,7.03,s04,0.016496658647382687,0.01379824941222737,0.013990998590314873,0.016702250048921036,0.014373194043700879,0.015207277439736171,0.005476892442631695,0.016056100097862517,0.01483781429506692,0.012590950912958962,0.01616367851113363,0.015825251273389063,0.0131365073693767
0,0.009401050228995627,4.9,2.85,4.72,2.87,s04,0.010541041155723147,0.009274543873772896,0.010025002824978499,0.010914170746504552,0.009497793283094112,0.010024410175570795,0.005238193497622087,0.010242418175473068,0.007543797510974749,0.008230128581487143,0.008789757134779362,0.009695266354249294,0.009619679619052746
0,0.011262797352791093,7.09,6.22,5.92,6.21,s04,0.011799069386608086,0.011146974275696908,0.01119026813866958,0.01181735481406156,0.01175026581624391,0.012931286014775577,0.017123598084413973,0.013092134568321917,0.010416497896302399,0.01126160070071019,0.013246883199954125,0.012366891264870672,0.012282915762581864
0,0.011169491388129888,8.17,8.05,6.08,9.0,s04,0.011030723737633743,0.01005830588430721,0.01117667554459482,0.014429006631963323,0.0093605385546414,0.011786258697509698,0.008535679480187094,0.010650917006067366,0.011241506582616873,0.009338293935549039,0.013314063601785163,0.011865225953875822,0.012198458908647363
0,0.007467423792317924,1.77,2.06,3.73,2.26,s04,0.008398891612747603,0.008040359639745965,0.007822928287404449,0.008033080319138889,0.00783516174405072,0.008499204419639729,0.00681804427526958,0.007913292862298834,0.007799703707442872,0.007859119190720859,0.008504701188140607,0.008036725030304693,0.007882598995670632
0,0.012522868102451531,1.86,2.78,4.97,3.92,s04,0.015224668786332437,0.01393141365051267,0.014110616432045905,0.014881928385915072,0.013086771965026896,0.014741769610710807,0.007481135820087692,0.014973684420456842,0.013059497617325638,0.009902762251080164,0.015386540322933467,0.01570731800007366,0.015117551308693711
0,0.012361502485760244,1.86,2.04,1.0,5.99,s04,0.00820073010459306,0.006794209600075863,0.006905479381090583,0.007954797317438981,0.006768526278232132,0.007692505725993596,0.0028266702379500987,0.016606448015828768,0.00621378600575024,0.014590480125556547,0.007718173314177657,0.04804190178306727,0.006131600743605759
0,0.015061681852566006,2.71,5.13,2.04,7.19,s04,0.019530929131191716,0.008313200024124391,0.008929655352557717,0.00962914386222893,0.008271702720647721,0.009456574626303085,0.013747556586014467,0.019489837819197,0.04871876580374572,0.014404004549576119,0.009356930589336211,0.018663505306394094,0.007960521464138521
0,0.008572003922372505,7.0,6.04,5.01,6.08,s04,0.013966666599489601,0.011121793495034258,0.011830077765122857,0.010693708161258966,0.011596033668804096,0.0124372650722287,0.020883527554963862,0.012773143278585971,0.01230659639517999,0.00841736426995304,0.012534508399243523,0.012803950075833292,0.011832547581146559
0,0.014581047038774381,6.0,4.09,3.96,5.04,s04,0.01976408281841814,0.01779509069334784,0.017508230660412856,0.019132659241960018,0.01645799923587503,0.017939097172505313,0.019410981271500143,0.018948717912038077,0.015968001694292747,0.013141829063707283,0.017881386988872004,0.019307988237690355,0.01650190852783839
0,0.010411719905780267,6.14,6.13,4.92,7.08,s04,0.013595425438236717,0.014089120475817592,0.015054804625294736,0.013890934312665899,0.01194983994638609,0.013982569424611216,0.015280525307906377,0.014553165274697518,0.012901311262598546,0.009742516067792755,0.014360025729773076,0.013157827467531908,0.014407199645784342
0,0.013911419402895926,2.17,6.96,3.03,8.06,s04,0.007932921585895342,0.0071945718758821475,0.007118786413838457,0.006900920195663446,0.006035602982230943,0.007422262781069434,0.0030654539141737273,0.007926284395267134,0.006342847382123826,0.006356315171177715,0.007798872505362465,0.007488992047032701,0.006742518270869392
0,0.01276603019843667,1.85,4.88,1.95,8.13,s04,0.04766683675804903,0.048025232918408385,0.04802175638627027,0.04731889257625659,0.047190768864689994,0.04806284709852567,0.005361111958821316,0.018694642021900076,0.016385573852719305,0.017039526165939723,0.04817926202501566,0.049536643270718876,0.01777858527626571
0,0.010841287742360081,3.1,3.08,3.06,7.05,s04,0.012655773992434588,0.011050926239963232,0.011696520037627708,0.010888025031899487,0.011691643139553487,0.011613503349913405,0.0003269769095038746,0.012962998635857287,0.011228485370245407,0.008934458588498955,0.01187088080993686,0.012420101294501341,0.011014545638774803
0,0.02424389211142917,2.01,2.23,1.0,1.94,s04,0.020009281871082724,0.01997162745549102,0.03721865907415636,0.02377134417439557,0.014029737952705741,0.024143876086224616,0.00880232861167492,0.02459057294405432,0.019980126684838437,0.011614702798269741,0.01954749128320698,0.03111978939601357,0.018593979405832496
0,0.012196981240892128,1.01,6.15,1.09,2.1,s04,0.014167726285724764,0.012581867182974344,0.011532205041849347,0.014065744280591548,0.012566751337784381,0.013738155275594278,0.01564364218174079,0.01427154313950311,0.010471918214042173,0.01089458926858456,0.013712863864905726,0.014254150875150123,0.012676587567867473
0,0.010785570360579574,1.0,1.97,3.67,1.95,s04,0.015612671258314583,0.012759382982511834,0.01558892227175703,0.014366400880633618,0.013460694798883425,0.01440593949803761,0.0042102612947165175,0.01499340906682998,0.012568625252201874,0.011349242768197692,0.013023879399170895,0.013662560243864398,0.014354935232198478
0,0.011898616033410282,2.17,2.18,3.46,1.92,s04,0.01401926535186925,0.012558063765255072,0.012987560487481741,0.012469119089954295,0.010818123331609749,0.013449105690783222,0.023731208265873303,0.013796305003843752,0.009850275831402454,0.01034232289057157,0.013418900461557977,0.011632007418938346,0.01239167423698832
0,0.007838480679493914,2.03,2.88,1.06,3.37,s04,0.011256017888758782,0.010049135353308565,0.01052136558873129,0.009415900932167985,0.010741606561441122,0.01064281182920251,0.012446800748208647,0.011309789189873843,0.009958721744821895,0.008707697667742953,0.010736778875750586,0.011423924106044297,0.008005309050937881
0,0.010522030895039235,2.72,2.76,1.99,2.33,s04,0.01259448997617706,0.051026486353591714,0.0492053727843846,0.011571426472421525,0.00917118772521333,0.010766046814999413,0.012583286621991261,0.012460617291725276,0.04996351395976432,0.008560891636347366,0.009939791731996264,0.012513360088154495,0.009538501729745512
0,0.01598737784258018,1.0,1.0,1.0,1.0,s04,0.01369173680321642,0.04953831168039706,0.01218410055516138,0.048677948142744294,0.014090800123699697,0.012235359418190137,0.011942058577573597,0.014412840895765371,0.04964037001189598,0.012908768249770294,0.012061767416485365,0.0149434895434622,0.04944714624054566
0,0.049072005797405616,1.79,1.85,1.78,1.99,s04,0.02251899962654531,0.01462612556198898,0.015966558456420928,0.048576129699239974,0.015213731668763178,0.046008821663228026,0.012937364363132595,0.02121120969568958,0.04893021486243412,0.011882516570010508,0.04916174849685348,0.04869921450712238,0.048123003998581125
0,0.013089906572642161,1.92,2.96,1.82,2.01,s04,0.013552188711651323,0.04965318438747763,0.01178945090851716,0.014565294960797876,0.0483538835608283,0.04904002292948424,0.004203881274212995,0.04862215372980849,0.010582108457549139,0.010825016377335904,0.011453565177270907,0.013928958601870852,0.04881647881503941
0,0.02750481719814072,1.86,2.91,1.88,3.0,s04,0.04331894021347416,0.036504714481601794,0.03209820135353635,0.030456405741941407,0.04389554639091251,0.042595890227156194,0.02594877122999081,0.04520001708563749,0.03379278266639028,0.030621386639368593,0.032357190468310336,0.04286181454026284,0.04027259829216916
0,0.0254320565810634,6.97,4.9,2.99,5.92,s05,0.04672753421627745,0.0181308470373078,0.017610151561226424,0.042532825495913994,0.04083498110019649,0.03701444934396188,0.007491770961828213,0.04831745381257968,0.010543995731369446,0.022918375424761595,0.010829360242814182,0.017171909283783506,0.011479510678125705
0,0.016974048300103562,9.0,9.0,7.97,9.0,s05,0.014622936474056677,0.027532416852885655,0.01855011169727014,0.009672050042585912,0.014777709743169389,0.0215720909816731,0.007934799528958276,0.022740369314675768,0.01369763172278974,0.017555248606335824,0.014367693615710685,0.021542008745545568,0.04716632804092085
0,0.01583571361772931,4.95,4.88,2.06,7.01,s05,0.01588602227133683,0.042491698265075824,0.015982232705967034,0.016750859569858976,0.016183827742181522,0.037608770640149836,0.0026702897532002276,0.015276636626269418,0.01703102234247578,0.04229925055252892,0.017482070778900738,0.043175280363039914,0.016644933006980087
0,0.022702765945742307,8.24,5.08,6.01,7.04,s05,0.023676799510361557,0.022320236802444656,0.02545214335613131,0.023847986641809593,0.028968840824297674,0.03017475240159908,0.007542969051160091,0.024459896927036467,0.011032284088334992,0.027143538411164594,0.010909079834902498,0.021921497875400552,0.011528532917149906
0,0.035728674604181596,3.04,4.01,5.08,4.04,s05,0.012601766715178705,0.03570853743636807,0.03704407069951271,0.012286585214003033,0.011132007039518109,0.03298303538958943,0.007670301781561239,0.03240943260817126,0.014131205432819859,0.04163027454210876,0.013023333130656121,0.030903083726612178,0.01374516148824962
0,0.04722302349246272,8.09,7.08,4.94,7.14,s05,0.011590060778311392,0.018520710224241725,0.017320594637412735,0.046870075439920174,0.020453075912055068,0.032728962748517824,0.010326127838670035,0.016540637177936118,0.01101691373332314,0.023015796004523487,0.010729478860017502,0.04684718336377817,0.011761258414589847
0,0.025284443600287258,5.12,6.97,5.04,4.96,s05,0.027026090797779227,0.03228774491478406,0.02607969109572164,0.048777652088599875,0.026654497896903506,0.03735227626666687,0.006173333787081297,0.02395436165999262,0.026044476543110262,0.027125599141423023,0.025886679570553107,0.04965664659227649,0.029132994494043857
0,0.036542557341395554,8.17,5.91,4.04,7.04,s05,0.014065828359351936,0.033761939932318324,0.029286204951361052,0.0398986168610033,0.014806490691806784,0.03610889116923005,0.02051145737631257,0.026519210423632672,0.014839750577818686,0.02900348506219751,0.013258442212950462,0.031787580719180926,0.01333108673224594
0,0.032129179028903665,6.94,4.95,3.99,4.04,s05,0.013490267536548056,0.04668251242818709,0.046544808013529705,0.012179952729423113,0.012709470697351509,0.03236101818843946,0.008113014488889382,0.0261012596566462,0.013230699971037027,0.0324412549243253,0.012487237066592775,0.02504890488758426,0.013412407209288303
0,0.015095086355467198,3.03,4.0,8.03,3.97,s05,0.01642545365323916,0.04335094322835605,0.014906335843576087,0.016962357000871044,0.01656128770173187,0.038807917477791706,0.018098366051389276,0.016465250411123563,0.014843873566750309,0.04017804087254034,0.01653324655584397,0.042043448211555264,0.016378471466025793
0,0.023881069292984107,9.0,6.0,6.03,7.1,s05,0.02530941352619089,0.020285753190048123,0.020182372078182204,0.04662373309232756,0.02610358354951713,0.02880932267947411,0.006465435028076063,0.023790731777556258,0.02582901547727505,0.04069800968419388,0.023789885871863637,0.018244185034684283,0.011296843829832499
0,0.02308079942159076,7.08,4.03,3.12,8.0,s05,0.0457143617581717,0.022200679710344225,0.02335498477265194,0.02335551499633345,0.030710114572281223,0.037395307055690774,0.00256638290594313,0.04698330444625659,0.045219171620622486,0.02926454624208083,0.029931464747800538,0.046697339233086915,0.0121288601137557
0,0.047420562852787014,4.94,2.88,4.0,4.12,s05,0.015319703720711444,0.03155736625853602,0.028201384730359727,0.03639203038131981,0.015113740093303135,0.03714494997994934,0.0091645290977074,0.030912354529193966,0.015151577704661686,0.04663778099716601,0.015438235660768846,0.02669045495044764,0.016012455346449392
0,0.03768184435994987,7.21,4.01,2.95,8.05,s05,0.011679377426972318,0.0439166317889475,0.042668097897579894,0.017623343973448682,0.01844095297761876,0.04139369878553814,0.013380298427506881,0.03876479424928356,0.015951718510808243,0.04351615726499637,0.01514099014771962,0.03551500790523038,0.016019193868379446
0,0.014912043552141024,6.97,6.05,1.0,7.99,s05,0.014082850797756374,0.015245524290445836,0.016988552905417845,0.017644329022879424,0.018035228324658873,0.04519224159484174,0.016275026050268163,0.016409459307387204,0.016906072756256618,0.04312484192668951,0.016298135001249808,0.015688237172252668,0.016990691363209326
0,0.017815743104831656,5.96,5.04,4.01,7.97,s05,0.01749109812457144,0.017708403293532456,0.01871386935012501,0.020555865684070997,0.01831049091961907,0.040962038452464,0.030364173847240446,0.018168309572580758,0.0203334938396106,0.015782708090704953,0.02069668512086622,0.01728356438453736,0.020689156561186684
0,0.015634562195958455,6.88,2.96,3.01,6.91,s05,0.018103157829594044,0.034915227164530445,0.01471791670129118,0.018390356044511627,0.01844815088040891,0.0435317871265842,0.024843385002829774,0.015641587489360176,0.018709553733016353,0.03773519156271943,0.017888291623141362,0.015951562249982745,0.019248436914908004
0,0.0470902350484108,8.05,3.97,3.01,6.04,s05,0.02586642604379546,0.018532490867702592,0.015166097738611349,0.04682027125845152,0.04592433121739605,0.04671523042871979,0.003077161078359335,0.015840682833213517,0.011090771062212219,0.047400519312644544,0.01055833294706528,0.014632856482166424,0.010402354258411264
0,0.025048676716660355,8.03,4.97,4.05,8.04,s05,0.011678895791192826,0.026335607148556386,0.021725665389289002,0.023593568820233845,0.04028506428219649,0.03799244596448584,0.0077664852142333195,0.047338654602630204,0.011984633335604102,0.04349192895878909,0.011194645531578841,0.01916336477318141,0.010476927883220155
0,0.04523928723813888,7.0,1.99,1.0,8.04,s05,0.014867480116070385,0.033240375820380946,0.045587237587353356,0.04447546944742325,0.014477889924436096,0.03901849922380946,0.015361069796377975,0.03717910490537939,0.014834684675389953,0.03442634549197869,0.016534492060823244,0.032334105992728485,0.015308872858683143
0,0.041445216917453905,4.0,2.87,2.99,3.97,s05,0.015654068057601608,0.03324871028170848,0.03499471914552058,0.014140097998284024,0.014880260100235874,0.03674497688025752,0.004659087317330559,0.03640596657468552,0.016551719324008937,0.035162003258591715,0.015779740745956908,0.040824569974626905,0.016506870211781766
0,0.04181111468408349,6.99,7.95,1.99,8.97,s05,0.013958451253063288,0.041599720582029945,0.017382518330005536,0.017778153838338143,0.017804487185044605,0.03451596142952896,-0.0075978775521196775,0.04413387006260212,0.0166338789342629,0.039586589210911724,0.016320081337078306,0.03889957269032788,0.017428957449423462
0,0.04763969035088262,1.0,7.05,7.0,1.96,s05,0.030403576926392128,0.029501122236251773,0.027628975982754003,0.03673215621027048,0.039921608186305975,0.041676499252032574,0.00804196826198621,0.04774113353294658,0.042849991992208444,0.025883317255711906,0.03177919803283642,0.02980670503207609,0.012656538389824591
0,0.015612367198274087,4.0,5.04,4.12,6.03,s05,0.018234988966503732,0.04347920830088458,0.014008645270321937,0.0179066268173425,0.019256657301777457,0.04435038423179689,0.020846601118121054,0.014593843350539494,0.017902383178171354,0.044492405518553366,0.01801521794216063,0.014991077746985076,0.018602815673158083
0,0.04421667241376391,5.96,4.87,3.06,7.05,s05,0.011468599776964053,0.029351967459809017,0.03175218257249562,0.035821535515957445,0.041421360538203916,0.03671466133050747,0.004882957254137264,0.03770958413581375,0.014371000073990725,0.043540787375221136,0.014016090932882001,0.026782509299893273,0.012761830478101331
0,0.020419347192358793,7.96,3.0,1.0,9.0,s05,0.011603748123432095,0.021396182318585713,0.020606667782456414,0.023634866166793844,0.023162384404229165,0.04434630389254933,0.005324302639877321,0.023781841340235046,0.011965596635644666,0.02567975090380228,0.009667815802232227,0.018246270540192334,0.013065207885095574
0,0.028630580845813935,7.0,1.99,2.0,6.27,s05,0.012782090257953991,0.026829296697675788,0.03188130142641993,0.02896542383335411,0.03964385340984609,0.03703964509462051,0.014996544520060131,0.030884366813669826,0.01394583969502852,0.03206738008434194,0.014506861236860156,0.02480867664820866,0.014530589451661066
0,0.02587995268082409,3.9,4.08,2.86,5.04,s05,0.025733041249393285,0.02395409070528474,0.03202511324707467,0.03626498078660203,0.03585555804403198,0.04601728129171511,0.014919401383867477,0.029612733089896245,0.03337132847099969,0.024353864166762842,0.04116292188897319,0.03344332926413591,0.012041475979787008
0,0.01537631492357005,4.04,3.01,1.91,5.05,s05,0.01728226909733765,0.042930742115501394,0.01439466494434284,0.017486746050276784,0.015707664070902717,0.032334206379498645,0.006932359829283437,0.014121460914611863,0.016676869536891008,0.04320819390683002,0.01716566519303746,0.016260042154563965,0.0179184303139194
0,0.03431113891399101,2.94,8.1,9.0,9.0,s05,0.012495851300797308,0.028941777751541796,0.04784577829516919,0.033129366822392474,0.014154232393099575,0.027967904572735253,0.007558653647439379,0.02826193218999611,0.012542799679008785,0.03758550275836072,0.013291524874197552,0.0405408139046641,0.012935444954279406
0,0.02112422497883997,6.9,6.04,7.95,4.05,s05,0.011878978414932344,0.04855034156721461,0.04822098916890665,0.04732938931912792,0.02587895488812426,0.04615001893026948,0.0033230306701735645,0.017682117122714853,0.009730046002369935,0.04742648172982128,0.009294568619638037,0.016426406795695736,0.012325633542118304
0,0.033345682010214456,1.94,4.12,2.06,1.94,s05,0.06392003415705082,0.023736572789621883,0.02445378670325649,0.027525566305432975,0.02464347619276785,0.024794909718272504,0.010860233976129723,0.02889240689845896,0.030144029855728185,0.02189220648545489,0.03763247774693054,0.023137357208755076,0.025369928652181205
0,0.025915761895751142,5.17,9.0,8.01,3.99,s05,0.028904275470262995,0.03811897864708541,0.02390781665054443,0.029608096711564974,0.038327163636090324,0.02635077770043247,0.0075684957336959935,0.02605234827174259,0.013346680595403572,0.02926180822455952,0.01315058779528755,0.025941827403965195,0.012980264663696303
0,0.03449648847218352,6.03,6.97,8.1,6.0,s05,0.031171380622046333,0.024078940724523278,0.026103074210030698,0.023828763228196412,0.038793490883103014,0.03965159869731825,0.003738401874377725,0.02921846849577757,0.03133017739486187,0.036063214133846076,0.03711392054880482,0.02912819224935736,0.03807593682654829
0,0.012409544313276274,4.86,8.1,8.17,3.97,s05,0.012632234069536294,0.03853116662878724,0.01416231871550922,0.014581954318123988,0.0147375035930325,0.03814051611381652,0.013184125082833502,0.013115483841805976,0.014910714815247765,0.042537766650207164,0.01586452013737459,0.013591979908493323,0.014812418254646163
0,0.030914184478783382,4.91,9.0,9.0,3.88,s05,0.04684485320803486,0.02466443344786927,0.04670154010086991,0.029823207264714255,0.03406972508681439,0.031262978034860875,0.005460475620470413,0.028235510890227414,0.04098065868885622,0.026147585648756813,0.04100153365233197,0.026188198550716964,0.013542887326833414
0,0.036473695018835156,1.91,7.01,6.04,1.0,s05,0.03128384462978295,0.030597281113385437,0.039598259763451944,0.03340655573170466,0.04136407321557073,0.04314359713069447,0.0005737185313333352,0.03364737963897896,0.04027252415749985,0.047905220376801776,0.030856781646985028,0.027623497787057843,0.011249229431152263
0,0.021134600240833756,1.0,3.91,6.13,1.04,s05,0.024761873451538234,0.04877229369416533,0.048339498286344644,0.022846167987636536,0.0253837786792699,0.046775040442617155,0.009614878370050706,0.02198275908269524,0.02258177133389781,0.04873890354663507,0.04793530824233073,0.04555358220375441,0.022288046652714184
0,0.01896948626660921,1.0,4.86,7.05,1.0,s05,0.010761734692555551,0.02029582712080013,0.01753208685729472,0.021833269740387743,0.012306439147980639,0.03139179910721379,0.01870073770221894,0.018671844887921174,0.011217069661612789,0.025476515583726458,0.010466945612205512,0.049348313467843206,0.010337162593625566
0,0.033708312984906945,7.0,6.96,8.0,2.92,s05,0.014449443889114046,0.03198929863237592,0.04465975622557657,0.04366485063619043,0.012371312915154187,0.03728754227621509,0.0014248951933439654,0.030321573948046392,0.013513311018814993,0.03617455122763648,0.013463472836726503,0.03239995164715152,0.01490881340458704
0,0.02600935464765514,8.19,4.13,6.56,7.47,s06,0.027115077032686796,0.02357447422203474,0.016857571197768415,0.04499371894320159,0.04330562149099541,0.051315954753330825,0.0037360191345214466,0.043565595598149175,0.03773462614196955,0.026220360750423676,0.027743650675866476,0.043207381004677754,0.043664103223566335
0,0.021677838300806097,6.83,6.62,7.08,5.96,s06,0.021170893801048776,0.016551039913507894,0.03498747846582419,0.047439737095413395,0.02022559717884217,0.030286634429679084,0.01271358958461817,0.030359612112018326,0.03526214006357316,0.020691991745566768,0.024615335464477552,0.026669308843804987,0.0460458371872293
0,0.048582743994797256,7.69,5.99,6.87,6.49,s06,0.02521156673816165,0.024850917865840257,0.022662519240585446,0.03763112843642982,0.04963598408276516,0.022046900413908922,0.013670069711250007,0.04286935723813861,0.043479143766532335,0.03920804048297411,0.03420164970790631,0.04762337047357315,0.04620857382179214
0,0.030053303735515204,7.55,6.79,7.56,7.05,s06,0.024409726949838544,0.016315529853340213,0.018948885110708216,0.03998998633602203,0.020949539602318122,0.01764483242244489,0.004963605923760262,0.03259871803201025,0.03321356706944046,0.018974672340032604,0.03652622593666581,0.03213015171027409,0.04690302852401171
0,0.016989291369259783,7.01,7.38,6.55,7.36,s06,0.021927662210150144,0.022617874040708516,0.013176294473501077,0.02370206031744351,0.017806564058576186,0.017365832905192696,0.004658620178171939,0.02396098702818488,0.019235280930526635,0.017962057511884844,0.02362983500915947,0.017392772894639034,0.032511411154915563
0,0.019537226609357694,8.05,4.5,7.58,6.63,s06,0.021541302348419993,0.05042301148784395,0.017436911365178588,0.042089759676079926,0.027199129523575102,0.017946705292529043,0.01822301546732563,0.03650896967503052,0.03614970689745726,0.044525170092743524,0.032056237839080536,0.050385336030887684,0.0467723328368109
0,0.023025053383562734,8.26,8.27,7.28,8.0,s06,0.01741153067284872,0.022577669332315645,0.018445512750646306,0.03486701740938068,0.022894071222661655,0.022112045707283416,0.0052546892911114005,0.02314554727994484,0.02689585359186529,0.027253625306440793,0.024486266649686263,0.018174298516996527,0.04306673125216845
0,0.026418851805733532,7.05,2.69,5.0,6.83,s06,0.024041962885594667,0.014300761546118777,0.023974980364789025,0.04364625385829387,0.03032109141349789,0.029482766208659222,0.009042498644660434,0.03165132748453242,0.034534834803126135,0.016460324460127174,0.017817815581520662,0.023538749774526104,0.04592287271542666
0,0.01685637825137943,7.87,5.13,6.1,8.28,s06,0.023303710497342693,0.01597761807479257,0.022666638762086314,0.03640236036274516,0.0254287850725782,0.023556806752970002,0.008443527054368356,0.031173888532949896,0.03382368279684445,0.046649925076231724,0.01742602049649399,0.04335717886450754,0.04702404871919108
0,0.049066229832323296,7.37,5.46,8.4,8.03,s06,0.030660649149463252,0.024078085204103112,0.025912690841756892,0.044471353337280806,0.048960180342951826,0.025012501729339224,0.016662458190344325,0.038732688468799154,0.04594202215934491,0.022864202875912315,0.049812847740796154,0.032994713312964864,0.04272838433583571
0,0.03121326225501399,4.99,2.5,7.31,4.03,s06,0.01833397477537709,0.04987371316302799,0.022896919669685874,0.042848751060944844,0.03733851828421602,0.016520256524557457,0.011334682765759769,0.02719590781375566,0.03233219674602645,0.01562996920892751,0.01904876415546107,0.027620123568821837,0.0449587943858671
0,0.028240464270221945,7.17,3.12,6.87,2.99,s06,0.031634662384377385,0.01357824412633018,0.023046932165492084,0.015840072944910716,0.03339692703763349,0.021224638608496906,0.011020766200172866,0.04297514571283107,0.04386559590361185,0.011975605406851083,0.02213572555728879,0.042562498992547146,0.0470740130073146
0,0.028751136279577212,7.79,3.95,7.38,6.99,s06,0.03143836907821658,0.03874892755468292,0.0248913492702478,0.04632586016690828,0.04605893131525556,0.03501437937512112,0.006479394645021765,0.04334813670108201,0.03693680133718355,0.0352340259050067,0.027828895804023687,0.03977223404666823,0.046713347363292794
0,0.04028234062614019,6.32,3.49,7.4,5.38,s06,0.020854293441222742,0.013121751607474665,0.01799359426393582,0.040213558966653344,0.037550883125840484,0.028076058501129972,0.0015102855145830846,0.0397699445147756,0.04050737974936499,0.016452107510324335,0.021695355173490225,0.038027143478393456,0.04729681534874717
0,0.016778616266926453,5.59,3.79,3.68,4.04,s06,0.02264225456740836,0.016497774950162646,0.022816993378020956,0.03903106304637169,0.02633461192413984,0.023856680471818346,0.009865212858768846,0.03822425053953759,0.04568659757002007,0.04601688822921443,0.016541190199799414,0.0300741245766648,0.04780586877263587
0,0.02762651276755152,5.06,7.45,3.67,7.08,s06,0.030525095031240235,0.0136343184164015,0.0327827223054654,0.04316525764035107,0.02190850241383489,0.017529208581526,0.0036944258481937183,0.02612713805536706,0.03032079784876866,0.019002169697016732,0.01801355330498648,0.024675532582857394,0.04505408401776086
0,0.044733924030511796,6.72,3.63,2.88,6.15,s06,0.03793945270672165,0.013082185951439222,0.041326345729405356,0.020408208322043275,0.04416384428067326,0.041026498029134294,0.01554247705559955,0.04566355863011876,0.04502487164690987,0.013548442157539291,0.04190554165364896,0.04036810858207823,0.04800998483385374
0,0.01781117759547142,7.59,5.81,6.14,6.37,s06,0.016508554364298614,0.01027756068666105,0.012704405751261591,0.03243911139788954,0.031974285983582935,0.01093467298921155,0.0008126011913556475,0.0485638355722233,0.03387688772351123,0.012236066187842405,0.01744941302708199,0.027224970377803817,0.044078832461421726
0,0.050045158425155896,7.41,5.6,6.67,6.91,s06,0.046973299625725655,0.01637337959418864,0.014891014907319675,0.03789921019890319,0.02194177753987155,0.023816056827922427,0.009159633864805302,0.03350160929651619,0.04011486287702592,0.020460935628379723,0.018177904669694066,0.03774214418310861,0.048299092457706805
0,0.013579112666470019,5.01,3.05,6.59,3.03,s06,0.017232346010731904,0.016950007323380183,0.01678171786633144,0.03325729368008225,0.031327526909964466,0.017356820158905814,0.013666040018985089,0.048326941412322466,0.025525778652268107,0.02755742774290205,0.018093192970359547,0.04359664478551057,0.044983629355753355
0,0.023399276967007387,6.28,4.59,3.42,6.13,s06,0.022718015253028464,0.017096010870852774,0.023438051244714812,0.04583670973671231,0.0267368045938805,0.019591070793487056,0.0032854700236128087,0.03347458384934387,0.03752128617805343,0.01997000645464799,0.02465333886198951,0.030637879936946548,0.045860286942102
0,0.0290718627398155,7.56,3.19,2.46,7.23,s06,0.03217479076495167,0.0295038566180673,0.05022944333601977,0.04535255234940615,0.03484092819537812,0.04274377101351127,0.006469856228744677,0.04556289615487699,0.04654020635705254,0.046828773194561135,0.036186236844343266,0.04347424121727628,0.04872199628586172
0,0.017759222871675202,3.47,3.54,3.59,4.55,s06,0.018973709279157966,0.014882622815794876,0.030565309589722308,0.044634877111678795,0.0494233087617524,0.033532543496770977,0.00837100012260545,0.039489308869998685,0.04481366253836643,0.01978646845329458,0.050545472028304096,0.03866725260751281,0.04554561062863009
0,0.04284030007708358,3.5,4.01,3.41,4.22,s06,0.04069024674256111,0.023884663320755742,0.031833689586788866,0.04442311713570053,0.04685532411530421,0.022224711341198328,0.01098534836980699,0.04422415468029518,0.04316200743940549,0.03966819061789398,0.04324181992539591,0.03868607596347197,0.047809319209335524
0,0.025179255663693702,7.09,6.42,3.49,6.36,s06,0.03257080748841008,0.016147555140998446,0.024086817018278417,0.040926507481357406,0.02293520111171926,0.023675892903254635,0.018064462929441045,0.047047779133177904,0.04688964309597854,0.01858759977686124,0.06736215523311068,0.0476779095933811,0.04616482490883748
0,0.03260297225970836,5.08,3.37,6.22,2.79,s06,0.0262319553825972,0.020146262364124666,0.024159774922211063,0.043593723433358454,0.04386492277446556,0.03166371408630817,0.009270807734706713,0.0363513600346474,0.036857815666148167,0.04876693414182085,0.023727526376158076,0.04800268126108428,0.045812161345231056
0,0.029887260561862517,5.08,3.47,3.74,3.08,s06,0.030642510198587297,0.025209337526448085,0.01869937524957175,0.04537046332108351,0.02792188351710865,0.020676047220004826,0.013048104236000294,0.04255062511989057,0.04664563645217509,0.03063074053520125,0.020795473585211225,0.04039590065939381,0.04857843513775594
0,0.02076774818409416,6.42,3.62,7.78,6.99,s06,0.01945132383211399,0.04784751035729231,0.04836370293989103,0.04041755073948903,0.028137063310269727,0.015754183070866137,0.0032376617751517563,0.035883034739577845,0.040288764133787874,0.02362123014745201,0.023550963663792918,0.030569821404957977,0.04612833485567486
0,0.03206343895457901,4.27,5.45,3.71,6.63,s06,0.03202687560431154,0.02671298348723175,0.02149068038126907,0.045029829857044734,0.044506594834314885,0.03516096893478835,0.011125198766296843,0.04052528707604648,0.04482325754667589,0.031432435924845605,0.041695994099113204,0.04577015136417592,0.049148285837101846
0,0.026411845587998847,6.99,3.79,3.83,7.1,s06,0.030619958922273604,0.021616846752441538,0.025422238779592037,0.047747903301518,0.028745298695190987,0.025644422887445607,0.0149222424155786,0.03385294079516964,0.032663909116185705,0.02521414826520129,0.023703996951763506,0.04876714157842774,0.045191552585228986
0,0.017914900412926094,3.65,3.49,4.05,6.36,s06,0.026010422916202584,0.01800255854051168,0.029576786926814442,0.02311019581401727,0.024533271789550854,0.018585907233940147,0.0013350637191568082,0.01941387993948781,0.019362867347837463,0.04556855705234551,0.02697021652565206,0.024393167600526983,0.03463989087618965
0,0.030176660516759903,6.99,4.5,7.12,8.05,s06,0.017610253868522007,0.01791973821409437,0.018267668210542726,0.03628036975860591,0.020356824109842298,0.014095700704134406,0.006874633253666299,0.021629960323960317,0.027201190464674653,0.013307908388573406,0.025293513968750448,0.025900290291952285,0.044625402572459796
0,0.030894175138899572,6.68,4.37,7.96,3.88,s06,0.027701768839637615,0.048668952864043595,0.019559365935244735,0.045793368583335055,0.02962737793735208,0.021775938769963744,0.00672969065214446,0.04335708654016484,0.044877986262615535,0.027643881273599995,0.024864299702713043,0.044313581814443344,0.04486748210170802
0,0.02241619478385107,3.31,4.45,6.23,2.36,s06,0.023897752912999587,0.02023439187481349,0.018564102968831733,0.03848896904995556,0.024526920236153223,0.05412170174263505,0.005442754845869995,0.03253698132830035,0.03846211684377566,0.024674043001992784,0.033134371369749706,0.04193414171800791,0.04550185902674406
0,0.01781786667121618,3.96,5.71,3.06,3.71,s06,0.028807662540249523,0.01763655851175477,0.017798756505106515,0.04277167983521205,0.01836477208325239,0.013409169403822942,0.007861328961556295,0.04321545057670587,0.04876888146244704,0.01620216183743242,0.029228952952793676,0.03226385922992921,0.04554560901527124
0,0.025692532248043482,5.71,6.21,8.49,7.46,s06,0.032264995808694755,0.020902012129681954,0.01993716119781258,0.03746718613777689,0.042078637007463025,0.01902888478256585,-0.0001459683582280528,0.0358394139744128,0.04505129169416377,0.026194664769396553,0.020475414606529924,0.037373973193921474,0.042027595586943994
0,0.027080462625585142,4.83,5.74,4.56,2.18,s06,0.03071075010911282,0.021596477835597476,0.049501910015028384,0.036989624813456204,0.03925149605616197,0.026147074653350814,0.003796390901531894,0.03469736657275505,0.04444931531399886,0.021842321951038857,0.022454518680957224,0.03499359279963261,0.04599692516757142
0,0.022766894257269427,4.44,5.58,3.12,5.04,s06,0.017912851585136433,0.018264145641536302,0.013947461868499277,0.020930740743961358,0.0200438391078602,0.013153533001879552,0.004456613665429319,0.02394469280885522,0.029574354578789333,0.02254049804184459,0.01185890177746746,0.017933022844922243,0.03769816181115933
0,0.01758348024808426,6.56,6.5,7.53,7.4,s06,0.013803492059240724,0.012466291088168902,0.023482003219277216,0.038229517769395184,0.019430578599764565,0.026277078615201708,0.008777662745693146,0.02783139497768213,0.036486944399381875,0.015590052905045112,0.02489204825935788,0.03125706793512197,0.04573246357136204
0,0.025798134751372166,4.85,4.64,5.04,5.03,s06,0.023608774143260944,0.014034782587471649,0.026867282974136292,0.04385934019447276,0.017653546934052737,0.023803896956391415,0.0054144892776220015,0.03229807580218576,0.04281566537412491,0.04547770309259212,0.025144908716390437,0.03235588892009186,0.0460368909333882
0,0.030506951516087632,8.1,4.01,1.92,7.06,s07,0.02066868871122905,0.012438598212662208,0.017896798940805123,0.019302294804499496,0.04581453608221275,0.027301512986970953,0.0031226834628095713,0.026847790289084107,0.011678386219477355,0.01698525135333705,0.018599916290450713,0.016572475057887257,0.017185402667428594
0,0.017585868363851873,7.15,5.96,3.96,6.91,s07,0.013736458091468952,0.012575482155059464,0.01734044132651844,0.012784616096869886,0.029271527603789437,0.01811140579181697,0.005833287824664052,0.01890227427849392,0.014652168834125985,0.017576731168306537,0.017774173191615335,0.022691305205288413,0.024399572455682153
0,0.01355113432957575,7.1,4.12,3.03,6.09,s07,0.025764712920555526,0.01825827818650448,0.01781320702898618,0.022881702276376727,0.01809605923327752,0.018839908170175897,0.011460563592743276,0.024225710250519117,0.01818537057101049,0.024562124453861515,0.01675933140974756,0.02481379351773082,0.02321114068502914
0,0.019144430265321647,7.08,5.03,3.0,2.97,s07,0.023421842449313984,0.016753255665957124,0.016741237797579783,0.01808050962594818,0.022640293771094017,0.018911331564515323,0.009984156959935145,0.01783670959891841,0.02220124621967698,0.018804413931710198,0.024461234008872797,0.029713848502329596,0.024654177423138024
0,0.025019029994587466,7.05,6.99,6.04,8.05,s07,0.029731921638761212,0.02273964148301346,0.017651374523456075,0.02099479554773666,0.0194807638333538,0.028949909442873657,0.004287820093398785,0.02655509697211975,0.023173607312716102,0.06370160146193052,0.017213539762811047,0.03471259363404986,0.02375809805733819
0,0.02812139003783603,6.97,6.04,3.0,7.03,s07,0.023842376143067823,0.009717561981894775,0.011155313545173646,0.023789404774760246,0.025625322150792464,0.037356528368863225,0.016989809170103738,0.02444307446823341,0.017595280657757492,0.02283179630078102,0.024880871667966556,0.026170971629383512,0.019667456610402038
0,0.04837173515266465,7.08,7.06,7.06,7.03,s07,0.038923028608615844,0.012427046582415214,0.02325238605121992,0.023542593485728486,0.01973868464375564,0.038120783611693285,0.008202971073618979,0.02500930408855069,0.023684797182187967,0.017532475702055017,0.024250880702511156,0.024386927325729207,0.024387032121092427
0,0.04553424395047689,7.0,5.99,7.04,7.06,s07,0.034086951842674774,0.0249619575647206,0.028567522289843706,0.027628290784227766,0.05000964038226067,0.019665139062063845,0.0058988396649878065,0.024920430550208535,0.024869283477028416,0.012221229197615284,0.018022212353381264,0.02472840927459389,0.023971680756453548
0,0.008724227818575897,6.99,4.0,7.08,7.05,s07,0.02551773092248913,0.01722146914555456,0.017659007847963967,0.029193432633183528,0.0191870796811448,0.018619114226037157,0.0037710099041891984,0.018463306374602004,0.017409369185730408,0.017192025761027692,0.01775978685735322,0.018387818074488166,0.013430940521346878
0,0.019384847892509518,7.09,7.04,8.06,7.09,s07,0.025467457090105377,0.012492453301703137,0.023403967867840804,0.025570222309657525,0.019525915711790416,0.023506556500445325,0.006696471129719176,0.02347778435591822,0.01911075560601185,0.025606502958802225,0.013422190726220109,0.02918615374531761,0.018694589426229116
0,0.024920222523448252,7.03,7.09,2.97,8.06,s07,0.03188263944217137,0.01847022575336478,0.03406599982754206,0.025151849055028264,0.025197532150771643,0.024929528707986346,0.009690580033419263,0.030819716509713466,0.01821140273586709,0.024474940110129156,0.023236811816037446,0.025599269552545365,0.0317049409006979
0,0.027758658587277406,6.99,4.05,5.0,7.1,s07,0.025092629547957563,0.01775515603495152,0.01265932713355205,0.024130462290166528,0.023687300839266942,0.024702587865213125,0.011832293292932138,0.020345700444198953,0.02921824239975788,0.021956603003949613,0.019241948704142878,0.02863590461867192,0.023736097000457434
0,0.023562452085423454,8.0,2.96,1.94,7.1,s07,0.05746656459766424,0.024664869707220434,0.021100653076721546,0.05099345372647665,0.031747933300867025,0.023271767412894724,0.00734986160315703,0.048560677923370744,0.017207228855823868,0.016698175715649213,0.016972443559667347,0.020661471772381586,0.030579099608754105
0,0.020581533965163372,7.09,5.03,4.97,7.12,s07,0.022117909230828608,0.017781683376857083,0.019116142293908886,0.026368699230990618,0.024486715580613126,0.0331211231567048,0.009224706783629204,0.023398547694731122,0.023236224415538135,0.024137451884510813,0.023843187814230483,0.030064092363630026,0.03074145317077633
0,0.02319793858370937,7.99,3.01,1.0,7.03,s07,0.02395216134878313,0.01730974558945515,0.015919204596634533,0.023724637712751212,0.026681776885147772,0.018843944256122052,-0.002138307399319674,0.0344939991668029,0.022553360480444342,0.02548195503570208,0.01246115961274879,0.018154828103033878,0.03163049682231267
0,0.019028655775300544,3.03,5.04,3.95,7.05,s07,0.023204676135555723,0.01977096904407832,0.01697702198238138,0.031582587629884154,0.015983279923261207,0.033284093693194086,0.0037416398636107417,0.03323911991748188,0.02793901184212578,0.016091591709262523,0.023812393230844442,0.024501012272811828,0.03310065741067382
0,0.024556393675751798,7.12,2.05,3.0,8.1,s07,0.04197907762213062,0.024293380893572844,0.018030327266506187,0.03201640726445805,0.023500068524385357,0.03073602438879561,0.004478660232891699,0.025102499553135486,0.014168911092863258,0.02788164360182625,0.024881486578302088,0.03785785767851967,0.017192134143799345
0,0.018530795862386353,7.03,3.06,5.03,7.01,s07,0.018442157860640514,0.017825325766762257,0.024700752626334387,0.013119019828476207,0.01785848328447718,0.02605243305583555,0.0019086956039187904,0.02345552706456454,0.0127091616183726,0.01730429209195633,0.017214882504808855,0.018421799271971115,0.023336351691902398
0,0.02387718787560109,6.99,6.04,6.03,7.0,s07,0.02469639149340958,0.01918723950019232,0.01812524978931125,0.018457469049390635,0.021024470233092667,0.019212142451778682,0.00826771690854022,0.030112671000616854,0.020362924743484452,0.02657849710066231,0.017658196962796503,0.024147625807877493,0.03131744776453281
0,0.018191663773505114,8.06,6.06,2.05,7.14,s07,0.027060999975099493,0.018240489802517478,0.029476925822636064,0.018182187289981867,0.02964472344943448,0.022125712593833145,0.003040573352740974,0.019007965758606384,0.02473557502135155,0.0237797288763213,0.02398138772838873,0.01926687785557308,0.017936060716817463
0,0.021062106876582692,3.12,5.99,6.06,6.94,s07,0.022679793113246756,0.03097247194856044,0.03055687701954713,0.017851740449339366,0.02415945765736343,0.023632001352834234,0.0009721417116246682,0.025419026678735135,0.016731340806562616,0.022701376087063015,0.02378125295534245,0.020202740208133004,0.017968848511412703
0,0.016417771905332956,3.05,2.03,1.0,6.94,s07,0.02397238021605222,0.009045000509782205,0.017864529903118268,0.013440044609816633,0.018121048596900315,0.024185775400518094,0.006814942007951412,0.018745887410509518,0.022963745488142052,0.013057377788570277,0.011981488941432597,0.01843017274206793,0.01939548633910776
0,0.028410226315051343,3.01,3.04,5.03,6.96,s07,0.026031854650476596,0.022953539858296245,0.02418147677849475,0.024588592235858606,0.01817903688398456,0.02255002710248959,0.007895620737774564,0.050484638311424954,0.03314153734081513,0.0185742758132597,0.013511838612856507,0.01740431879449078,0.023908907502562166
0,0.023730892139476812,1.97,7.03,1.0,7.1,s07,0.018321748618241016,0.018347859382629166,0.013990337198430755,0.03202932767483436,0.03062590884192236,0.023869599352826284,0.00691918322914508,0.02794467333223434,0.012818233116523298,0.01499933796329086,0.02368140202386451,0.021219592828016724,0.01644748703908112
0,0.0420292623750456,2.99,3.03,1.99,7.1,s07,0.031236043867174143,0.04930592250157059,0.019094240534436407,0.018119680036709957,0.049808082580566425,0.019770256553109256,0.007486533085622668,0.024491905135448785,0.023151578484000762,0.024714105207841557,0.019393539690709248,0.017559262335769796,0.01983034136659471
0,0.012616801928806844,2.0,4.04,3.13,7.08,s07,0.01751156953664909,0.017870772015917257,0.016999044261135698,0.014525145083874128,0.015694065659733147,0.02845515285704148,0.0035568112620933475,0.02586250645773739,0.017405031801579828,0.018142087118966147,0.024269311022794986,0.025037120699211494,0.028707295138048112
0,0.029206181802712068,6.09,3.04,1.96,7.97,s07,0.018067122815729347,0.017531920265365222,0.017564729019835572,0.0195842722912768,0.016133856585645246,0.02840005361960285,0.009757467738368763,0.02252022303067717,0.018518962702908134,0.01911424542521367,0.009151105447249053,0.03196967756267443,0.024379557305639742
0,0.025324329439100353,2.05,2.0,3.01,6.95,s07,0.02016078224332318,0.05053125504472417,0.025573891597789562,0.03643504865876916,0.013799709039968107,0.021215186014280053,0.009037826020838783,0.03406649945856458,0.01723420357966137,0.011847124233112368,0.014105886012524004,0.025048315132057398,0.01795218541071947
0,0.030850198361780684,7.09,2.94,1.0,7.0,s07,0.019394477645119288,0.022915322964008115,0.022723465175419188,0.025007093345725984,0.01774302272473348,0.029637009590713657,0.002537684691579627,0.015058457434594132,0.01817589015751071,0.0140386757608188,0.013641416609703975,0.024287473238431573,0.023756436463240747
0,0.018600369547749428,3.09,6.08,5.04,2.96,s07,0.02340627869406901,0.017759705637837252,0.022494456121786417,0.030380647261064136,0.06112363288452565,0.02946732155205614,0.009630302797283932,0.05396837847573403,0.018625155910030604,0.02253292562176178,0.024838984667599703,0.024352262832306345,0.03295281262570505
0,0.04105828586428576,6.96,7.03,5.03,7.05,s07,0.036442015197250766,0.033456083221322395,0.014256906676125579,0.029857083729335248,0.01721131316686084,0.01859422306438048,0.003774897847997694,0.024839108330862922,0.0233782288089445,0.0180344385105173,0.025576229933853837,0.029751049620764542,0.03495062052548575
0,0.0298965697047463,4.96,7.09,8.05,7.99,s07,0.03148875757765091,0.03145888056284772,0.01842551309983789,0.028571643919892132,0.037731189122558205,0.02803727143967728,0.00726667291977827,0.03412825625747358,0.022487873035472842,0.01282363004617747,0.02175394616140751,0.03065737687819099,0.022804530112297813
0,0.020061475890023064,4.97,7.08,6.99,7.0,s07,0.051135101947155676,0.015060908310896775,0.024163293314503977,0.015020279617576283,0.01833249972416787,0.01850063460213775,0.0037738688108398537,0.02617599544944331,0.02439462171031726,0.02294224277957461,0.02575675340799169,0.024197042381370493,0.022943800622290407
0,0.030507890615179643,4.01,7.13,7.06,2.0,s07,0.02482029289052824,0.01808977913070493,0.018197363549536116,0.018882336197318404,0.026826228414262934,0.023597192240285374,0.00783635106003069,0.018654376595884748,0.03082456363852668,0.01842876057048407,0.013361703265796892,0.024777428658453983,0.018919811143979712
0,0.02657987173930597,5.01,8.05,8.09,6.92,s07,0.021816357289712273,0.026304790139779516,0.013693694468144708,0.030864450795520824,0.019168743720421228,0.026574355441850304,0.00881837642106728,0.029873007164265726,0.023242544341873415,0.025194255860297086,0.020214886455745373,0.021734788644554224,0.03011118389553248
0,0.03330888224172075,8.1,9.0,7.0,7.01,s07,0.025061481077592537,0.026467667064344592,0.019334861448594684,0.02708506584167473,0.024109595910181858,0.02471954586741689,0.008900248013616455,0.02121646385493239,0.017250434382931033,0.021942714544443027,0.022636253231174363,0.02514906558361681,0.02027052575415282
0,0.018581355011069955,5.05,7.04,7.12,7.03,s07,0.01838871279915591,0.02331065188397419,0.01796179289346194,0.018008370975871484,0.018868599619184044,0.027972425614203374,0.010281464928074635,0.04684241835053984,0.018064175333295327,0.017225489511594454,0.01814663934183623,0.028801792960271806,0.018447941476171868
0,0.02942860828513031,5.03,7.1,7.03,5.99,s07,0.018539947467845645,0.014322285885577227,0.01299928785204042,0.024545319001753295,0.020759839214577785,0.019520585353557742,0.00348383249343049,0.020445180314732324,0.018006751825521083,0.01795191424233561,0.022864133185082812,0.03052828141621174,0.02946487069129939
0,0.017879606603265975,7.01,7.01,7.05,7.08,s07,0.03560053341630574,0.047791651078871095,0.023952041877495136,0.02418981437483723,0.02615376199994774,0.013603760645939635,0.006395224521034455,0.023925252566841377,0.02237218290894911,0.017330861353612035,0.026948110918613943,0.018960554521162153,0.02488479823856573
0,0.018979076450153967,7.01,7.03,6.03,7.05,s07,0.021562421150097592,0.01899396718203347,0.013017019191821851,0.025491301567999936,0.015993584374250025,0.02397915923988426,0.008517285347494909,0.02184462739686106,0.012074974867013555,0.02307638274947864,0.025378231163863136,0.015858127707141928,0.014613558154995196
0,0.03995046425499395,7.6,6.78,7.86,7.47,s08,0.024403835128951952,0.02482157094137995,0.036853558557075304,0.02917104872493081,0.03258870803692978,0.03055003220820943,0.008615580537265355,0.035222231296070834,0.012103120798826701,0.011980339643117597,0.027279369731366437,0.023545344321282427,0.04395304900362984
0,0.033722497677708206,5.04,6.51,5.65,6.32,s08,0.04449647251440551,0.011321757223222501,0.0441212603511077,0.03007552956965372,0.03376252779861514,0.03670023700647187,0.008120478364758169,0.03612003627998123,0.012537673230441037,0.01398780474791663,0.011817104332930425,0.04398344770262508,0.04418190000648791
0,0.028233909594697546,8.15,6.96,7.33,7.96,s08,0.0317302016967274,0.018898024663820227,0.044750563004859516,0.03271657510544018,0.03924264949664729,0.044125538840329846,0.00822798013687129,0.03837608763835226,0.011946162035011965,0.04246173917799072,0.030275781337560807,0.04421357845386507,0.04517083831299526
0,0.022852831620436477,6.82,8.23,5.0,8.12,s08,0.023066505643751133,0.0076833768324418425,0.03647364733511932,0.04708308497561683,0.04645203406630551,0.039066875190065534,0.009335292849624113,0.037935760564971326,0.023412923584052826,0.036428449446694794,0.030136689587941166,0.02505691594280494,0.045255322205392974
0,0.04210664514909712,4.41,7.72,5.62,6.67,s08,0.015025703473524507,0.027035088731228767,0.017749075576512348,0.015304989284939188,0.03889030740972145,0.03625938577074125,0.011819936996116026,0.017701803795014803,0.016080199338621988,0.0175370206736554,0.01553413900169171,0.015639700432016356,0.046207120454401014
0,0.03233976556051629,7.4,7.26,5.94,7.04,s08,0.04184160017429444,0.02321639584971004,0.044809155535877235,0.038210700687609164,0.044459942857125685,0.036595520694822165,0.012526227716813911,0.01988757381568092,0.015956355827023178,0.017327843651626935,0.044243667806897924,0.03979279451202919,0.04673690150554921
0,0.03634103850314485,5.04,5.04,5.04,4.95,s08,0.04823580790169629,0.01901812081808561,0.015971258192351203,0.031234414795762087,0.03859279783148507,0.03959680649272176,0.00525453394534517,0.01682436611201325,0.014704086112761465,0.01573524327548038,0.02338074902636174,0.03294333815574642,0.043866948495831296
0,0.02486212594168527,8.82,6.4,6.31,8.53,s08,0.02856742228780467,0.01214571349270678,0.036211350507903396,0.02242523968874751,0.03518951611191612,0.027304272075275866,0.02144555459942718,0.03916439526063165,0.010021135474150993,0.012987840076662453,0.01907002637674524,0.03392300360343029,0.039539523292006024
0,0.02550818221459541,8.78,7.24,6.35,8.22,s08,0.016529082876490787,0.013267958914483307,0.031004384680692762,0.027245127117753096,0.03125764728969014,0.048033720933938324,0.03169428567241015,0.03916294042718234,0.04524358681270054,0.045749412495310685,0.016379196565229674,0.012679089888369362,0.04590165901652822
0,0.024069643020629913,4.97,3.6,6.94,3.77,s08,0.03100618805204111,0.012177150566261044,0.04056266608991116,0.02803639778253621,0.04323375381669155,0.04333359711152277,0.02084890834072156,0.04678852576062205,0.01275096392872896,0.016187215092206143,0.030166946668081347,0.04359346153144554,0.04609094401051234
0,0.03673330064405467,8.41,5.0,5.12,7.54,s08,0.039705029390711084,0.0187539795895556,0.042293481360700894,0.026354724048537455,0.03471674802080818,0.033886452531214965,0.010422930323091693,0.043137859581108454,0.009703395873542768,0.040948130851401504,0.023394678992565487,0.027564866224068174,0.04248090334105904
0,0.03521214451706195,8.47,6.54,4.01,8.19,s08,0.038221950280038906,0.023012053835523027,0.04499693329172933,0.032447531865477205,0.0414146940510973,0.042713821920237226,0.012314959217731227,0.018253496560183314,0.015440357694722108,0.016062936638340717,0.04425823097630811,0.016569768941627323,0.04441541146515017
0,0.017457097441285253,7.9,5.09,3.9,8.1,s08,0.028786975145339923,0.011238537468276582,0.03521157022108107,0.019463297036977956,0.035313981039482155,0.04738461418961926,0.0067163049129015705,0.03947214237729415,0.011527121089396035,0.01381017678492787,0.025199375251414212,0.042163824684479566,0.041575475474049335
0,0.0445879617131743,6.88,4.97,5.12,7.38,s08,0.044387070397685406,0.016904596444014555,0.023732052098375197,0.015020829116975979,0.04314510221768147,0.045270265403546804,0.014625475994696626,0.024131450259843347,0.0181153306776274,0.020245631272941544,0.044810446590886885,0.018074952953993577,0.048749312601591537
0,0.0441978454589845,8.33,5.04,5.17,7.31,s08,0.01935761179586843,0.042913800743900006,0.020877231732763395,0.013664803472725171,0.036763134337308004,0.04330517600353509,0.008571925916169908,0.02143862945864885,0.01498271032415016,0.02046980166592989,0.01313777404862493,0.020074799576321255,0.04264923396863429
0,0.02330459952854061,4.21,5.06,5.0,6.24,s08,0.019305093081917333,0.01687763846613898,0.04413676062481124,0.026871635297765935,0.048535580874759614,0.04312202652594209,0.0035610743931361937,0.03702064959784625,0.011343298731623519,0.036468732984442455,0.033588861058845496,0.032815028744848956,0.04342097035027986
0,0.027714081784020662,6.67,4.77,5.04,6.6,s08,0.03286299390214992,0.011625274077995466,0.0381394065834157,0.032775971595295175,0.04737340198019121,0.04872235579598225,0.0016304031833185093,0.046821266009395394,0.011608283842463644,0.04693710139249789,0.045180777783261704,0.016033996440268893,0.04714893084719669
0,0.03752673257861213,7.21,4.03,5.44,6.64,s08,0.032517331672526774,0.018723872991708506,0.03978608867578333,0.033759866125654285,0.03655634370328895,0.03687384254054014,0.010335129185726589,0.014822571342055965,0.01373661383143013,0.014657989385965839,0.02763494960093816,0.04607013659756685,0.04399380683898918
0,0.03584081074770758,5.04,6.28,5.04,5.81,s08,0.03638548595564698,0.03705070452256626,0.04144103987175117,0.030583280232286177,0.036897335136145855,0.0428369224519659,0.013662407691018359,0.04582050814664465,0.018860956033070808,0.019609615009538665,0.040653675794601524,0.04210470260534083,0.04625187646177483
0,0.02382288136325037,6.74,4.21,6.44,7.08,s08,0.023513661898099496,0.012863745222558412,0.04058991589940589,0.022904742419064737,0.04146530413089845,0.042514262186617933,0.014497383017288914,0.03920401230193011,0.03576022742087378,0.03801526354070291,0.02242202496790628,0.05495374202728272,0.04033888933951387
0,0.032831981349761216,4.68,6.41,6.27,7.33,s08,0.03783673654522803,0.02376623048887149,0.0432938604426564,0.03546261745586723,0.03405174983386077,0.03768216015999767,0.008841100245929445,0.016108631124400065,0.011159093748848336,0.014007489762216219,0.0405710201514395,0.04340649744621806,0.0452886167325472
0,0.017692601287757796,4.23,5.79,1.19,7.79,s08,0.040450816626077135,0.016616489861037514,0.03025799682270657,0.022733284691912263,0.03152166414419929,0.03802190579866103,0.006774115980717071,0.04411407682488706,0.01214830634922039,0.012271488225685011,0.02919293293537473,0.030980354333967838,0.04316689564769435
0,0.025661088608123286,3.59,3.68,3.44,6.6,s08,0.02162716491765177,0.016786335588811374,0.036905037729363634,0.027896321120382355,0.038653050807484324,0.04474736084615386,0.008657052463158801,0.014060804618979355,0.010470205896303836,0.01180680811874503,0.045489004330969696,0.0392143584433056,0.04483011862389136
0,0.01737520196935618,4.15,4.56,3.35,7.86,s08,0.025857278283265756,0.017477116622324023,0.043750032087914094,0.03513317149982112,0.042193726489418354,0.04614579166684842,0.011846691862981287,0.020038421707923904,0.016232498848076902,0.01609321961531773,0.0323923983862842,0.01499009398694303,0.04667637957666158
0,0.029374595449752215,3.72,3.9,3.5,7.71,s08,0.015793170353151708,0.018972947047306815,0.01916280112780338,0.014253383713799606,0.04311553670051411,0.04543706089034126,0.02326013127663995,0.023307651619379397,0.015922208251614733,0.018953853785389527,0.016798785248318317,0.020799743286286823,0.047318350282826875
0,0.030876167331423066,4.99,4.99,5.04,7.44,s08,0.04667626128477202,0.030123542953323503,0.04575062049062633,0.033169304697137025,0.037461767280310886,0.044136658494657796,0.016616572795925474,0.022460354217375064,0.014891384055243855,0.01961200562390406,0.04241755367221699,0.04388580035446292,0.04121907133805118
0,0.029273951053619393,4.46,4.59,6.65,6.21,s08,0.03406401191438947,0.029680446276678905,0.042948219471408054,0.03263218193263782,0.03648300212726251,0.04628473356529901,0.015766642147437258,0.044441118096946834,0.013911994566788677,0.017347102874034254,0.03779741525650041,0.038800198891583516,0.04541838957851102
0,0.011112699975500502,5.04,4.96,5.04,8.68,s08,0.029545956691408432,0.01705811573908867,0.040285636518234684,0.025200250512928374,0.04023954512780166,0.04656734151218058,0.002737385385176593,0.03999206768838979,0.01163048499485229,0.04113131268580166,0.02284200225852065,0.028112370538992938,0.04433948581380063
0,0.01929057168436558,2.78,2.99,3.62,7.15,s08,0.028084427969796308,0.027489325736789787,0.03359114712500457,0.013306656917491928,0.0368865973809186,0.028278553703059445,0.009273951394217503,0.03406541044867077,0.009970276329818558,0.013027168768463231,0.045494778246819204,0.029256253999611407,0.04226820970836437
0,0.0367672853302537,1.4,3.13,1.21,7.95,s08,0.02563633114872467,0.0119271353408173,0.042812508747990016,0.027105442982684136,0.03347311753817551,0.04393891947610043,0.005650744760843152,0.016195386325990938,0.009865567350727193,0.013757529096783258,0.031799368075911126,0.03873390063904874,0.04405403657067098
0,0.03485771401624807,1.45,6.6,1.45,3.27,s08,0.030747114056667794,0.04363276408268855,0.0426194404256034,0.008230214172939067,0.03683420147812152,0.0330812018405859,0.008772653691908855,0.012560185709515215,0.011126971128597389,0.011786328585642651,0.04304200854000117,0.030745813457483964,0.040651898635061065
0,0.029295166901179642,6.33,8.23,8.23,8.83,s08,0.03307122175727415,0.015526272438384474,0.028967497782177887,0.0210741928645543,0.029921684682711946,0.027943899801799198,0.009793550089785717,0.022559419695169863,0.04242547531517183,0.02811315011155657,0.015091902607089697,0.033025890447517116,0.036609417095518834
0,0.045565824759633965,4.44,6.44,5.94,5.51,s08,0.016811998148222273,0.024927505032046805,0.017346761202571302,0.011163590727625749,0.04520585228223936,0.038713310894213135,0.014490231535488708,0.0175175281486125,0.013572870098252685,0.01425997373220088,0.04268885465492886,0.018479208205197366,0.046949663287715014
0,0.012917483603203932,5.05,6.83,5.92,6.69,s08,0.046941457760484834,0.011199849468844699,0.032183895381031606,0.025541501991070276,0.03743508489508368,0.04341667469282804,0.011768123559784259,0.014449587383785835,0.01084885885083449,0.011809466487956576,0.029694951590165143,0.029360921042306004,0.040366572664495
0,0.028155695903989735,3.62,6.67,6.74,5.9,s08,0.02198214830006454,0.016936324024928433,0.026681284430946466,0.014746977732731535,0.03229614561081779,0.044028476711542766,0.009106067188998788,0.03594294138122015,0.03497634872645638,0.041702811750485375,0.016449409526782744,0.027446747561618825,0.044170832399601685
0,0.021953890873835723,1.21,7.94,3.03,9.0,s08,0.017109187094719622,0.024118030464256014,0.013178074078297053,0.02175047032093735,0.01695012391268533,0.011422170625699845,0.0097865032007258,0.02898787928151562,0.02632393836975092,0.04566116041066694,0.01598115396768021,0.01754252727215098,0.022406389949085947
0,0.038386795395298934,5.06,3.31,3.21,4.55,s08,0.02271845731144819,0.019540282396169693,0.024852622039628187,0.04136384367046511,0.04246799605233336,0.04564629900724374,0.009206641347784525,0.02539909249330066,0.019996833598455978,0.024082546141738097,0.03251018864767889,0.04948734018139387,0.046185206560264036
0,0.027605638462425825,4.72,4.69,5.65,5.65,s08,0.016821767776969802,0.012534021497606294,0.016189824246071568,0.019520445859397877,0.031215807654487525,0.03622589947884537,0.02415444725438155,0.015468799584620791,0.010348630540917673,0.016848581848722403,0.01664793753361952,0.04586096461815166,0.04066328458618695
0,0.03166863556520944,5.05,3.46,3.45,2.88,s08,0.024618377790346292,0.023455218954400562,0.03607094890685033,0.017645024991297355,0.02839841587530644,0.0365368906558483,0.012189915305689646,0.014253416925106403,0.01335545943955246,0.04122183722432733,0.029636966343845536,0.027709195085877346,0.04080917458785195
0,0.02347495435390497,3.13,5.03,4.95,3.81,s08,0.018059802994014724,0.015546709626585343,0.036029417891251365,0.02296265655704465,0.04177794590928506,0.04299817506067444,0.026200658755194877,0.01406959112635196,0.011758369902434451,0.01360366353448828,0.018695110752534428,0.028062248852125354,0.04108920431973635
0,0.012732786070625687,5.05,4.04,3.01,4.97,s09,0.03166396746536313,0.013471504074828845,0.013571422422785907,0.010911301127019876,0.04305040160921445,0.04802475681787801,0.006870292362413986,0.013225362633759112,0.01447446568878469,0.011946058741155532,0.011453800314054623,0.01179012538879868,0.018068006544402042
0,0.014496874071517054,7.08,6.14,5.0,7.03,s09,0.016663377491507914,0.012833061578138804,0.016019968245480652,0.012694841492850807,0.03683924340365215,0.04786136499952325,0.006296922479357014,0.015598946326487935,0.015789941839269763,0.014499984560786177,0.01429702414048693,0.012138060071649746,0.018130384189913876
0,0.01647077826733853,7.08,7.14,7.09,7.06,s09,0.0164273680867376,0.015134198256213061,0.01768101309285007,0.016337086381139117,0.04228981509244539,0.017097647468998674,0.009450769424438274,0.015174176080806989,0.017825886848810688,0.01772941868714593,0.015552402505970854,0.01145750297690333,0.015961894362863736
0,0.01919366903979355,5.99,5.97,5.03,6.09,s09,0.018233733586590636,0.018153065926320027,0.019804810027818535,0.018151469423313193,0.04553838112983573,0.016842907887584687,0.012487011355953528,0.01775953408443553,0.019226739857647935,0.019716278282371737,0.017668732248171268,0.015266768164553862,0.019481083479794485
0,0.013781361644332616,4.99,4.96,3.94,5.12,s09,0.040379020009700006,0.011986286019379164,0.014560817358628629,0.012930401856044455,0.04250745990640668,0.02990059149260024,0.010847883057175855,0.014170769904110968,0.014308811579981184,0.013559511867729473,0.013717008050882551,0.011754863846976786,0.01835530346090131
0,0.016018510494592013,7.04,6.19,6.13,7.08,s09,0.038645516362106475,0.015567218420640504,0.015111602963628058,0.015076123867394712,0.03548020838847583,0.0330685507349608,0.0041592068724577045,0.015395854775970145,0.014478741787575493,0.015482265562624685,0.02751555270282365,0.011054710172257334,0.018659793487702858
0,0.015945205182740074,5.08,5.01,3.9,5.03,s09,0.015041476114885858,0.014662086602413138,0.01687097388344851,0.015452840111472235,0.03709664846721446,0.031810380784187194,0.010106690527853901,0.016135329813570708,0.016648584062402775,0.016876252599664816,0.013701902853476165,0.011437274788910446,0.02044552697013139
0,0.013557704880430952,6.15,5.0,5.03,5.99,s09,0.019722299261407304,0.012468727537103751,0.017371932665506854,0.045094837055930564,0.03152997622390808,0.04717420302857837,0.01312637279892357,0.01636055176322538,0.017398958133928517,0.016796180686435333,0.016441999059734824,0.011199671367429324,0.016890745066307725
0,0.03570205283455414,5.96,4.05,4.04,5.01,s09,0.04290852281111702,0.010201191428362842,0.043107899354428686,0.04158789576316363,0.02590807119882924,0.019697777476022117,0.009826326370239103,0.009508015614635497,0.02246504633845782,0.042317494567559795,0.019159498819356618,0.00967072041507596,0.014448953641427608
0,0.014007731239750718,3.94,3.96,3.99,3.96,s09,0.020329137906560976,0.011903035493213355,0.013884821369962818,0.010074912496036783,0.030013793763485404,0.026234560878544755,0.0021115149770464053,0.012676146707019395,0.014289807467847358,0.012660460058248276,0.012237377424497948,0.012845175785655407,0.01796864144968849
0,0.031303441991992885,7.12,7.1,7.14,7.0,s09,0.026633411760601758,0.012342339559668665,0.02090504469833973,0.04711139396745325,0.043871941067897526,0.023098440953565263,0.00995335997196646,0.010614409518601185,0.02295032117827137,0.023931399289846365,0.017735710857421413,0.007953695022617273,0.013494043414657333
0,0.01363277845562627,7.08,6.99,7.09,6.13,s09,0.02812530355398661,0.013286192911975732,0.046659707178043304,0.021865873240600086,0.03264407529497715,0.02060522451175481,0.013739907950685665,0.013236842606518818,0.028560085666158235,0.013279123198311224,0.022139077159101076,0.010027730603498757,0.01638103506781833
0,0.017186067716495487,8.15,7.04,8.17,8.08,s09,0.023362137123899413,0.016061433324273962,0.019973616825567832,0.012581786749497816,0.03474484940958678,0.03813533615647692,0.01645314496262649,0.017559998324423013,0.01997564994927598,0.019325160257743824,0.01693784106861449,0.012255204207188437,0.017635001076592206
0,0.016230135395841738,7.0,6.13,7.12,7.04,s09,0.046139018663190236,0.015890213804424843,0.015568254122863,0.01511085948558752,0.036222772849233476,0.049055310985710046,0.017178195819519983,0.015393751537477685,0.015354153433361712,0.0155718242799915,0.014654414158946983,0.012243373187508174,0.01626978774328494
0,0.01874551881443359,6.21,6.01,4.99,6.06,s09,0.01854152636627169,0.015715941604302616,0.01915299433278229,0.017817580820333915,0.043419831197532385,0.040904677191446,0.01405185230991282,0.020039365174414337,0.01857478925095617,0.018680801776924345,0.013249241661381167,0.015729930149832982,0.02191508359967654
0,0.014907918282274907,4.05,4.0,3.87,6.04,s09,0.013881915074474371,0.014601954282340292,0.01334075751394597,0.01382233846412506,0.041882450239998995,0.04294834744035223,0.01633809909485926,0.014860088299896724,0.013532356766034983,0.013031897673735821,0.011550794615028549,0.014440931457375267,0.019745883396307288
0,0.015081471385377666,6.03,6.04,5.03,6.06,s09,0.013116603599404388,0.015138173747707215,0.014803159236908017,0.012087549551113323,0.04357138020651692,0.040912838077228286,0.021034159337667786,0.016208877995329055,0.01453174610395697,0.01613239245144826,0.013337633785881323,0.010537674957851243,0.019988819445022347
0,0.010733677684396894,4.9,4.97,4.96,5.03,s09,0.033816309142530886,0.012250238203313921,0.01101512602857648,0.012408285271509006,0.04141698636506737,0.030136359312638826,0.00706428979572474,0.012712095116669238,0.013974745156629982,0.01139591404177098,0.011660169889342018,0.01157012486007982,0.017415265723912353
0,0.014951924053398449,3.97,4.03,3.94,4.99,s09,0.02640041329082426,0.014346409347821994,0.015935365118161474,0.04413092371101365,0.036033465397247305,0.03511522318187499,0.010330715125443975,0.016238689422607512,0.016618429771577344,0.015464471481941978,0.015744108122748332,0.012104551207344442,0.017837269498844215
0,0.017599467329076884,5.12,4.97,5.0,5.29,s09,0.027831889573023044,0.01588176198907815,0.018275173143906875,0.014995023583466095,0.04338122077454313,0.03847715018088353,0.010635073745951844,0.017812381725053554,0.01860149605105608,0.018385957708262277,0.012622503388602758,0.011846306386983604,0.020019121844359028
0,0.012696493184791408,4.04,4.01,4.12,4.0,s09,0.012904378639077181,0.011375731837992514,0.014308396867803714,0.014112152927326604,0.042407925412311684,0.04655822413561526,0.007083971697585055,0.013807535171508687,0.014597815436285974,0.01400021701245708,0.01345792525523429,0.010281131705459072,0.014893738308338046
0,0.019431764068025378,3.99,4.0,3.97,4.99,s09,0.01126105865916697,0.018480127948825583,0.02242189778221961,0.01811334532920751,0.042837897458470914,0.04764713414267086,0.01619337365354191,0.02284478952506091,0.024745469065511394,0.02238229934615304,0.018825828306602566,0.016694592136447632,0.024545610204536224
0,0.012478883632077668,5.0,4.97,3.09,5.97,s09,0.029231089714721863,0.011584055918567577,0.013142550630389537,0.012018243537758886,0.04083451400125843,0.03335366120525422,0.00800043909173229,0.01155810723214777,0.012190949272465152,0.012433628802029532,0.012472007620589379,0.011657762223520045,0.013252817189918296
0,0.018986933134697632,4.03,5.01,6.08,4.97,s09,0.041557023937540974,0.01868680968429086,0.020871070177868028,0.01814994125655194,0.03655025415253215,0.03909765335551473,0.009742307896707367,0.018359926132240606,0.01994590157210214,0.020210047924157173,0.017124793264600854,0.01329047389932586,0.0187645700242783
0,0.020105828901733867,5.04,4.04,5.04,5.04,s09,0.026471194347296435,0.016848387911513215,0.021171809326518493,0.012274509518612229,0.042904153264554906,0.015236579888575923,0.019962603585761733,0.023215912688862046,0.021321805197783043,0.021284353811934664,0.018284717604920744,0.011927525364622568,0.022477480690285476
0,0.013441761281039324,4.1,4.1,4.03,5.12,s09,0.01581199433668605,0.013009187153407232,0.01771883988621247,0.015416879106212368,0.042623066902160535,0.03994319438934317,0.008010366984776297,0.0156530953416919,0.017426795572848017,0.016668146306818007,0.015028752185203002,0.013452788934869245,0.019402785855110148
0,0.017048250162376485,5.04,5.05,4.97,5.03,s09,0.01934279550717569,0.016795944523167072,0.017925639732464027,0.014264838200695108,0.036342255274454636,0.048814446413064254,0.014334831739726547,0.0180604220640778,0.017575474469166845,0.018324113132977535,0.012476440249748876,0.013039061829850533,0.021771688007226755
0,0.011696290003286954,2.96,7.08,2.96,6.05,s09,0.02716665862002432,0.011777650698519389,0.013773852762186208,0.012897119121601464,0.033510852787991305,0.02840480668011891,0.008221272418373234,0.013113176201874275,0.01408394381685074,0.011692009101042991,0.01318574505931921,0.011862026067275322,0.01678601985025877
0,0.012371962779277124,3.99,4.15,3.0,4.99,s09,0.02970584416378926,0.011740512139088518,0.014900050433176786,0.0129755574352336,0.03724600515867529,0.0323908108623088,0.018757281984601925,0.011690639966243173,0.013278677173563075,0.013501636079839894,0.012921667904467297,0.010977799145680485,0.015203201931876124
0,0.01161412952274329,4.04,6.06,3.96,6.06,s09,0.017986325767096512,0.009564653960872579,0.012603842897235167,0.04495747138042832,0.02981249946558808,0.04066576322711849,0.01213964072543397,0.011066273933141605,0.012258095723278076,0.013082095018521863,0.012265998636867117,0.008200391965007093,0.012981234841191054
0,0.015397865868903593,6.06,6.06,5.03,6.05,s09,0.017575651708275308,0.014793059947126937,0.018084044769556686,0.016598202247877492,0.018675457106696092,0.03992576222670699,0.014777962514367542,0.015273715998675502,0.01732829050584262,0.017575008804733755,0.01631965805785809,0.015399120621761983,0.019170073427335125
0,0.013264838956437038,3.1,5.97,3.06,4.06,s09,0.013764851802104334,0.012504009149842359,0.012641235461106296,0.012666362618500324,0.03390868497812239,0.048744723404510054,0.015808234298438275,0.013179272574347532,0.013982055799381238,0.01358724428572741,0.011888319339392299,0.012205209229651213,0.01686682472325322
0,0.011809474477228118,3.08,4.06,2.96,4.13,s09,0.013143665403933202,0.010609968341126472,0.01373152668411677,0.012989863672772065,0.0427745539442938,0.03795289616835733,0.006068434385569369,0.013335605569788063,0.015354767169592453,0.013940254095438474,0.01278810903832731,0.010899979219598318,0.01625000382914678
0,0.01507566812876121,5.06,6.1,4.01,6.03,s09,0.024743052975226477,0.015101269544181086,0.015357593426833412,0.013832792570006108,0.03741169017657885,0.024888462085888713,0.01088301591705847,0.015798137390007374,0.015745108836406025,0.011557146062089628,0.012304252120683767,0.01499290628135314,0.021379850729547293
0,0.01337162483753134,3.01,6.03,2.96,5.96,s09,0.012610099312961325,0.01312334983591099,0.0129816203605471,0.010814925319743568,0.038504616960734685,0.04812401330923735,0.01457420399314461,0.012091965297483048,0.012154985139954753,0.012778761237580231,0.01187478271279833,0.009600926128481454,0.01641682918007317
0,0.01476747345280013,3.08,7.05,6.95,7.06,s09,0.01415486688433954,0.014195154808663134,0.016700552444200326,0.01484473037719725,0.0329649840662407,0.038234026390209425,0.01221698854202627,0.01580423185960295,0.01585263627948163,0.016345999691937528,0.013903906732235231,0.011083939894190313,0.01679425014031905
0,0.013710460015062933,2.99,6.09,2.97,6.06,s09,0.046520653616023956,0.011533809373963496,0.01347186500961727,0.009962356669823468,0.03399428394398606,0.029678066357423438,0.013026895021137306,0.014140354696309804,0.0151126631610798,0.012643096898053287,0.014032305879412878,0.011407338736192166,0.016632024661914817
0,0.01424112298353671,2.92,6.09,1.99,6.12,s09,0.02283545693198403,0.012899024675477162,0.016363694892739315,0.03360497482855323,0.039896795803443005,0.038238314233084915,0.008447135958755044,0.014224131687267475,0.015899813175201515,0.013902659673948705,0.014199728256947394,0.011446099695169638,0.01523412081880383
0,0.015982512633005538,3.17,6.1,4.03,6.04,s09,0.01434913650155067,0.0158915928878518,0.018539669176544652,0.016758840631794406,0.03824107312319568,0.04471562518213035,0.007013783088097151,0.015263345757046357,0.018764306081307972,0.018652693000999768,0.014430396621291785,0.013847044926769317,0.017482014617534496
0,0.01613985367541036,5.04,5.01,4.04,4.96,s09,0.03273770816515182,0.015357901598956272,0.01861846266370821,0.01683932333379198,0.04417526398097109,0.038689305327836016,0.014851535067838706,0.015192934306892256,0.016449461440847288,0.017932946939726288,0.015281100866929537,0.011378795155939054,0.015593898665230222
0,0.0171508667037243,7.91,6.15,6.67,7.63,s10,0.01620891432123858,0.013768400545195248,0.006574838062502275,0.015875074243921046,0.019404148304556307,0.016521600850923895,0.0038948247555214395,0.029932254058812415,0.01782321405934739,0.016137321727482407,0.030186869148024854,0.023721117239731818,0.01687352206763325
0,0.026898289509910966,3.55,5.76,6.64,5.12,s10,0.0322816535538317,0.042023938939463275,0.006464749498187328,0.010735408751133973,0.025924346799999654,0.03271447526095773,0.013522518726817145,0.029524172211965932,0.036268343181011214,0.035341605735215324,0.018164232536986537,0.019224837258106163,0.03904710736191061
0,0.013174531266496058,5.86,4.45,5.82,6.01,s10,0.015197821671107956,0.014150592765292671,0.010764484106935602,0.012374108656397384,0.03119928749300433,0.012944400149422787,0.011664859872115236,0.014610575945872112,0.043316436530952254,0.04574965915049247,0.03675081980855838,0.039316964715380924,0.044969799464806635
0,0.018174744027806024,7.01,5.91,6.01,6.86,s10,0.048260794367109006,0.01647908762684019,0.010459881263320946,0.02542464634742093,0.048389932087489596,0.021722099416881194,0.010289360347546815,0.03256020974079524,0.02484146160083816,0.022091919407033752,0.015300062986520566,0.028265179440470984,0.02384897700647793
0,0.021647497693812096,7.24,6.23,8.13,7.9,s10,0.04787623055127195,0.016833735263253793,0.009929792014766644,0.009434350072376528,0.02666885359702669,0.020149110245892363,0.008368344892535155,0.04681350287668734,0.04539448002757583,0.02130449409100097,0.018641074935158382,0.015988825813053133,0.021235746473777906
0,0.021420819477663913,7.1,6.0,6.82,6.85,s10,0.019411950787221317,0.046982281548636345,0.01040477769670741,0.019566354038208503,0.022478397297927874,0.04352472396618136,0.012473685221639906,0.030327817461935355,0.020561147972898406,0.021382426665907953,0.01813567208719757,0.02439817648667563,0.022874223533212605
0,0.02148296125642544,8.96,7.58,4.95,7.09,s10,0.01726485346699783,0.021187534961071716,0.028558678115302286,0.017433876519674495,0.02849321925633402,0.022199363498897458,0.0069059375884977904,0.024194453312800582,0.02783041192919614,0.023285003808828277,0.030362599353678327,0.01741001989457991,0.016955611469981105
0,0.02697561693888973,5.68,4.05,6.05,6.22,s10,0.028063803842381406,0.03839758068224126,0.011635804471336593,0.009422664498383122,0.030482151296380267,0.04557113421579075,0.005386745929718043,0.04740254642070376,0.035746548050328196,0.04461176835619109,0.027033604108370128,0.0308869964303511,0.047696470551560385
0,0.023860881810069557,7.56,6.21,7.59,7.27,s10,0.019894211311039918,0.018290668021975477,0.011317369997791895,0.04518997523249412,0.020594233394699686,0.021569316394047338,0.007216926206622012,0.04482316682773015,0.04654990507631878,0.04704642149866844,0.035264922188712126,0.016226171133086387,0.025587540698228786
0,0.013450707132751935,5.94,6.0,6.14,6.23,s10,0.04265139102935803,0.013178940238179457,0.010571335522633675,0.012296631368430996,0.04344472347345575,0.01611772066838039,0.013123714578139092,0.04213972817686272,0.04366918147954732,0.046121022741745434,0.029513631390027897,0.04127455737899706,0.04548409415366961
0,0.016420675778793133,8.99,7.14,7.09,9.0,s10,0.038269797000256275,0.015116913520683733,0.01684848379901074,0.01640912547824886,0.021901813776417475,0.020214091322951,0.009220548261675818,0.03125537318341864,0.0395808240869543,0.024017835973383302,0.02290801635155324,0.024063628584474084,0.04879792904367252
0,0.01819047589940344,5.37,4.37,3.95,6.65,s10,0.01744124851827546,0.015827410990797604,0.009198846287793466,0.018515695173909313,0.024558924484595526,0.04743538292086845,0.008074111269231262,0.03166425238663728,0.016097075817948742,0.04861420368661681,0.018176758682334728,0.014614124217275868,0.018774248483612723
0,0.027787863825846262,6.72,3.64,4.67,6.08,s10,0.03195788732728628,0.012499070761338625,0.008891186912104707,0.00935874761726138,0.026488716919849744,0.01385699606841461,0.01167389217175944,0.03433478337270614,0.03857742945353177,0.04325697690920731,0.021760526926441953,0.02657812345875267,0.03908461227751606
0,0.038652371572882274,8.81,4.91,5.9,7.97,s10,0.037906706542299405,0.0340141191360224,0.012139800773476633,0.013976829852697936,0.027196389316481842,0.03432615401206009,0.010419697153801874,0.033892757488741744,0.043366014688534925,0.03754364795676382,0.025342005933282393,0.03194806228850279,0.04023285079420649
0,0.02537505024666963,5.31,2.88,3.85,5.04,s10,0.027680633871974395,0.011150498120289868,0.008574681063917667,0.009767209502885907,0.032738949281354235,0.012322514121596951,0.009867838784759974,0.03100494893448172,0.03963584230657195,0.04254047906488411,0.023571830455439213,0.021907389129616598,0.04383190556576389
0,0.02728361948227186,3.85,2.83,2.99,4.09,s10,0.030754926878496014,0.030188300555810066,0.01060459816728492,0.012383630850541253,0.03623987750003203,0.03532412177637992,0.005823222553620972,0.04383839986285914,0.03359482083790919,0.03999272522173437,0.02877097640718731,0.02371935320424511,0.0387667304591128
0,0.018945994087167777,4.95,3.96,4.22,6.17,s10,0.01990060210227978,0.01755325661765192,0.013089029815961634,0.017254266384485652,0.029767182566491263,0.016933146844039283,0.0006266607271206115,0.01485039446804982,0.021329465418150853,0.021830710377355882,0.038900328100773235,0.03954984430681184,0.023981968706629747
0,0.047922837004369584,7.31,3.44,5.18,8.12,s10,0.017132262920770056,0.015404756028773363,0.008009871919815708,0.007179752467140693,0.02022389624768497,0.018492151620819845,0.004844350145574002,0.03319957023276424,0.024327976363045706,0.020539024495703048,0.018882951893649098,0.016568212718753875,0.02263991557899051
0,0.02426915099016964,7.82,5.19,6.01,7.82,s10,0.024060061823050555,0.021875238830830226,0.008672830257775625,0.01207891277574982,0.025930319898153573,0.030280827843262425,0.007901008690104629,0.03354998164238102,0.028049240670266536,0.028228073264502006,0.0211508942401315,0.04885635278662864,0.03079853273215033
0,0.022151967977584223,5.58,3.26,3.76,5.77,s10,0.026174255264150993,0.04811687879924532,0.006450300186280131,0.00850598267682884,0.029815932492775445,0.03312935782413845,0.011136423139010952,0.048391599474073975,0.04484573988089895,0.0319872641214689,0.025185547640973898,0.05018614895489757,0.044133925617189367
0,0.026325304813497482,2.97,5.22,2.85,6.0,s10,0.028765966490484473,0.02519283901583631,0.009025287736136936,0.009792787062348492,0.025708666666367157,0.025650780079209998,0.011182969076591508,0.04141674982874025,0.048000774564622276,0.029875804290788413,0.02780626054872496,0.04915478618777525,0.03183872216784397
