,channel_AF3_lziv_complexity,arousal,valence,dominance,liking,subject,channel_F3_lziv_complexity,channel_F7_lziv_complexity,channel_FC5_lziv_complexity,channel_T7_lziv_complexity,channel_P7_lziv_complexity,channel_O1_lziv_complexity,channel_O2_lziv_complexity,channel_P8_lziv_complexity,channel_T8_lziv_complexity,channel_FC6_lziv_complexity,channel_F8_lziv_complexity,channel_F4_lziv_complexity,channel_AF4_lziv_complexity
0,1994,7.71,7.6,6.9,7.83,s01,1976,1720,1718,1845,2025,1952,3343,1994,1703,1857,1790,1944,1901
0,2040,8.1,7.31,7.28,8.47,s01,2245,1819,1762,1837,1985,1949,3049,2065,1727,1884,1817,2049,1951
0,2066,8.58,7.54,9.0,7.08,s01,2234,1862,1790,1927,2003,1979,3198,2117,1777,1940,1836,2044,2004
0,2001,4.94,6.01,6.12,8.06,s01,2050,1752,1735,1840,1984,1930,3239,2013,1693,1926,1851,1987,1984
0,1884,6.96,3.92,7.19,6.05,s01,1892,1678,1617,1754,1914,1836,3125,1930,1722,1785,1714,1901,1808
0,1971,8.27,3.92,7.0,8.03,s01,2006,1790,1730,1938,1969,1937,3400,2043,1725,1873,1812,1944,1899
0,2026,7.44,3.73,7.08,7.04,s01,2049,1848,1781,1956,2112,1982,3414,2067,1723,1873,1866,2020,1919
0,2098,7.32,2.55,6.32,5.87,s01,2104,1851,1837,1954,2019,2051,3212,2161,1821,1984,1861,2071,2071
0,2132,4.04,3.29,3.62,5.99,s01,2121,1951,1881,2054,2090,2060,3297,2172,1877,2047,1912,2149,2099
0,2010,1.99,4.86,2.04,7.09,s01,2049,1841,1789,1911,2032,1974,3447,2106,1734,1908,1804,1949,1949
0,2062,2.99,2.36,3.63,6.24,s01,2244,1806,1773,1851,2002,1904,3160,2020,1785,1899,1902,2019,1968
0,2049,2.71,2.77,3.4,7.35,s01,2008,1753,1793,1914,2096,1984,3106,2063,1798,1960,1846,2048,2019
0,2134,1.95,3.12,2.87,6.18,s01,2197,1884,1857,1963,2103,1992,3087,2154,1781,1945,1891,2057,1980
0,2103,4.18,2.24,3.04,5.04,s01,2031,1840,1835,1952,2015,1973,3071,2102,1838,2032,1905,2142,2121
0,2004,3.17,8.08,2.91,5.04,s01,1989,1781,1763,1845,2009,2006,3065,2114,1723,1926,1800,1933,1985
0,1972,6.81,7.44,8.15,7.14,s01,1993,1758,1733,1903,1974,1939,3330,2030,1765,1846,1775,1945,1867
0,1931,2.46,6.91,6.77,6.41,s01,1924,1694,1739,1807,1953,1866,3045,2035,1659,1857,1783,1899,1892
0,1938,7.23,7.15,6.94,8.01,s01,2000,1690,1669,1757,1901,1822,3265,1955,1650,1812,1730,1901,1843
0,2018,7.17,8.0,8.1,6.79,s01,2203,1797,1773,1843,2034,1936,3004,2088,1690,1866,1836,2024,1929
0,2059,8.26,7.91,7.19,8.13,s01,2224,1903,1812,1927,2008,1955,3465,2124,1686,1873,1829,1985,1924
0,2065,9.0,7.95,8.37,7.86,s01,2209,1936,1806,1925,2005,1980,3497,2143,1738,1926,1880,2043,1945
0,2041,7.09,2.08,7.06,7.37,s01,2026,1773,1765,1873,2026,1994,3372,2097,1712,1902,1821,1990,1949
0,2058,8.15,3.01,7.37,7.9,s01,2041,1914,1819,2031,2101,2021,3225,2093,1878,1945,1897,2048,1970
0,1972,7.04,7.09,8.01,8.22,s01,2115,1711,1733,1839,1987,1934,3064,2000,1726,1877,1859,1977,1920
0,2067,8.86,7.21,8.65,7.21,s01,2087,1931,1796,1992,2034,2032,3378,2097,1828,1987,1869,2024,2056
0,2377,7.28,7.27,7.41,8.24,s01,2354,2247,2046,2055,2140,2156,3543,2189,1993,2042,2132,2202,2102
0,2131,7.35,6.95,7.03,7.29,s01,2176,1944,1879,2027,2055,1995,3288,2159,1868,1998,1981,2220,2057
0,2027,3.88,3.35,4.01,7.87,s01,2034,1810,1758,1921,2023,1984,3131,2095,1777,1880,1826,2002,1943
0,1942,1.36,2.27,3.0,8.14,s01,1934,1673,1671,1840,2038,1972,2918,1994,1751,1877,1779,1937,1937
0,2065,2.08,2.99,3.22,7.33,s01,2190,1814,1786,1894,2017,1994,2967,2078,1761,1934,1847,1978,2017
0,1968,3.03,8.14,2.86,8.04,s01,2132,1860,1739,1890,1981,1884,3533,2015,1693,1834,1804,1958,1856
0,2021,2.28,8.0,3.27,3.95,s01,2008,1768,1762,1858,2067,1996,3284,2031,1751,1919,1840,2019,1976
0,2143,3.81,3.85,4.78,5.13,s01,2181,2269,1851,1942,1990,1959,3349,2056,2253,2021,2209,2162,2078
0,2057,2.28,7.09,7.28,6.92,s01,2040,1810,1834,1853,1991,1959,2956,2119,1747,1948,1840,2009,2027
0,1997,2.06,8.15,8.05,5.18,s01,1990,1772,1743,1798,1924,1944,3164,2059,1677,1877,1779,1914,1890
0,2083,2.9,6.92,6.5,3.87,s01,2041,1821,1860,1867,2007,1925,3203,2117,1742,1978,1870,2004,2005
0,2079,2.31,6.88,3.1,6.77,s01,2258,1851,1812,1902,2025,1989,3067,2094,1750,1968,1855,2024,2047
0,2015,3.33,7.18,6.54,6.62,s01,2174,1758,1736,1898,2007,1930,3066,2065,1789,1852,1827,2022,1908
0,1992,3.24,6.18,7.87,6.15,s01,2181,1771,1763,1848,1950,1870,3176,2041,1769,1856,1768,1935,1880
0,1976,5.1,7.12,6.17,5.97,s01,2127,1718,1768,1794,1980,1888,3155,2026,1731,1855,1763,1866,1887
0,2369,9.0,5.03,7.13,6.62,s02,2923,2663,2468,3118,2243,3173,3531,3602,3205,2630,2989,3283,3105
0,2431,8.01,7.1,8.04,8.08,s02,3037,2876,2801,3234,2407,3394,3640,3801,3412,2793,3109,3448,3199
0,2290,9.0,9.0,8.96,8.05,s02,2896,2664,2672,3080,2331,3233,3588,3602,3248,2648,2937,3259,3046
0,2230,6.05,1.0,5.04,7.03,s02,2882,2616,2437,3056,2188,3119,3520,3557,3160,2589,2932,3226,3040
0,2410,5.04,3.0,3.65,5.04,s02,2918,2665,2373,3100,2173,3113,3594,3584,3177,2596,2968,3259,3091
0,2452,5.0,4.94,5.04,1.01,s02,3280,3030,2519,3501,2322,3439,3955,3993,3515,2960,3352,3659,3469
0,2292,4.96,1.99,4.08,1.0,s02,3056,2806,2548,3234,2274,3286,3853,3747,3324,2752,3099,3388,3212
0,2396,9.0,9.0,9.0,9.0,s02,3004,2842,2779,3193,2391,3370,3683,3748,3392,2723,3065,3386,3181
0,2164,9.0,7.0,9.0,7.18,s02,2789,2529,2464,2977,2186,3043,3496,3468,3076,2503,2824,3142,2948
0,2294,4.99,1.0,9.0,1.0,s02,2947,2696,2513,3143,2243,3196,3690,3659,3234,2669,3003,3321,3123
0,2392,7.08,1.0,7.01,7.0,s02,3043,2815,2639,3246,2340,3336,3767,3758,3365,2742,3084,3418,3216
0,2371,8.01,6.06,7.12,9.0,s02,3087,2840,2651,3285,2333,3321,3795,3800,3383,2781,3154,3454,3258
0,2392,9.0,4.99,9.0,9.0,s02,3017,2776,2521,3189,2321,3245,3679,3716,3271,2710,3062,3371,3191
0,2267,8.94,9.0,8.97,9.0,s02,2899,2650,2531,3096,2329,3174,3544,3602,3208,2637,2965,3260,3074
0,2389,9.0,8.01,8.06,9.0,s02,2927,2699,2605,3136,2317,3235,3858,3648,3254,2658,2995,3300,3097
0,2312,6.0,5.05,8.05,6.14,s02,3026,2782,2511,3233,2219,3276,3597,3742,3306,2718,3104,3394,3193
0,2563,9.0,3.0,6.03,7.41,s02,3348,3096,2830,3527,2495,3593,3982,4061,3651,3024,3411,3749,3511
0,2642,9.0,6.15,9.0,8.08,s02,3422,3186,2864,3614,2527,3643,4086,4102,3689,3117,3512,3811,3591
0,2413,9.0,8.32,8.06,6.99,s02,3146,2885,2586,3314,2356,3348,3866,3843,3404,2828,3225,3513,3324
0,2273,8.97,9.0,8.03,9.0,s02,2991,2740,2524,3181,2217,3231,3646,3701,3262,2682,3059,3340,3169
0,2287,1.0,1.0,5.04,1.0,s02,2974,2704,2436,3190,2215,3180,3821,3679,3243,2677,3024,3337,3154
0,2587,5.0,1.0,4.97,5.0,s02,3123,2857,2481,3288,2278,3322,3753,3790,3364,2767,3160,3461,3284
0,2214,1.0,2.97,1.0,7.82,s02,2804,2550,2355,2986,2216,3027,3473,3481,3071,2510,2873,3171,2981
0,2408,7.08,9.0,6.06,9.0,s02,3265,2997,2509,3449,2288,3411,3927,3931,3465,2933,3318,3614,3425
0,2505,9.0,9.0,8.1,9.0,s02,3199,2941,2599,3402,2404,3395,3807,3910,3454,2880,3263,3579,3393
0,2416,9.0,8.04,9.0,9.0,s02,3301,3006,2508,3483,2263,3454,4059,3993,3535,2934,3360,3657,3463
0,2412,4.96,5.01,3.01,5.05,s02,3234,2976,2619,3425,2307,3409,4074,3914,3477,2909,3314,3599,3428
0,2271,4.06,4.97,7.14,7.04,s02,3037,2790,2427,3224,2199,3254,3680,3751,3298,2723,3123,3418,3200
0,2300,2.99,7.04,7.03,9.0,s02,3056,2800,2428,3250,2223,3231,3887,3746,3305,2759,3119,3434,3227
0,2382,2.01,7.05,1.0,7.13,s02,3241,2951,2478,3405,2252,3374,3882,3931,3451,2898,3300,3576,3403
0,2420,4.06,7.05,1.0,9.0,s02,3294,3031,2606,3491,2361,3454,3940,3988,3496,2948,3380,3649,3464
0,2403,1.0,9.0,2.01,1.0,s02,3307,3011,2481,3477,2326,3404,4054,3966,3467,2995,3357,3632,3459
0,2495,5.0,8.03,3.01,1.0,s02,3365,3093,2484,3543,2265,3498,3965,4058,3572,2996,3435,3706,3528
0,2307,4.87,1.0,6.99,1.0,s02,2900,2682,2644,3085,2345,3215,3539,3618,3240,2651,2954,3268,3069
0,2445,1.99,2.0,1.0,1.0,s02,3273,2991,2610,3480,2397,3443,3966,3986,3501,2970,3363,3654,3450
0,2306,5.04,1.0,7.09,1.0,s02,2857,2605,2434,3020,2181,3099,3601,3520,3129,2551,2882,3199,3005
0,2425,1.0,8.06,1.0,1.0,s02,3242,2986,2617,3421,2334,3421,4064,3943,3471,2960,3326,3596,3429
0,2501,1.0,9.0,1.0,1.0,s02,3317,3072,2694,3533,2439,3491,4122,3998,3540,3016,3411,3703,3503
0,2346,1.0,1.0,2.97,1.0,s02,3062,2756,2413,3208,2293,3231,3677,3701,3276,2681,3089,3386,3194
0,2178,6.05,6.67,6.94,6.53,s02,2782,2496,2356,2955,2203,3016,3375,3468,3048,2448,2786,3134,2954
0,1812,5.33,4.67,4.97,4.45,s03,2102,2927,2216,2736,2708,2006,3780,2945,2343,2572,2837,2703,2598
0,1855,7.21,4.44,5.22,6.23,s03,2210,2980,2362,2836,2741,2061,3880,3004,2387,2623,2918,2827,2626
0,1872,7.55,2.81,5.91,6.81,s03,2180,2943,2335,2823,2747,2118,3942,2958,2328,2582,2886,2809,2613
0,1853,4.69,3.69,5.0,4.19,s03,2062,2796,2200,2684,2558,2109,3896,2818,2195,2435,2739,2656,2483
0,1872,6.92,4.44,5.56,7.17,s03,2170,2960,2227,2756,2768,2119,3922,2980,2379,2639,2852,2748,2648
0,1859,6.79,1.97,4.38,7.32,s03,2238,3024,2376,2900,2795,2128,3898,3067,2408,2660,2959,2867,2696
0,1933,5.45,3.01,5.04,5.79,s03,2230,2960,2347,2837,2710,2071,3966,2985,2346,2586,2889,2794,2639
0,1885,7.14,4.33,5.74,6.35,s03,2188,2975,2401,2862,2748,2070,4018,2987,2365,2614,2926,2834,2656
0,1876,7.33,3.23,5.99,7.78,s03,2223,3019,2251,2796,2805,2127,3920,3016,2433,2681,2908,2794,2681
0,1844,4.45,5.49,5.71,5.23,s03,2080,2891,2249,2776,2616,2009,3786,2907,2316,2533,2833,2753,2568
0,1841,7.94,3.12,4.23,7.1,s03,2185,2806,2228,2680,2637,2157,3948,2843,2253,2469,2747,2643,2501
0,1858,6.36,3.15,3.12,6.29,s03,2188,2908,2254,2735,2726,2207,3953,2932,2322,2588,2816,2721,2582
0,1893,7.91,2.97,3.68,6.99,s03,2316,3032,2367,2857,2836,2128,4045,3062,2468,2694,2942,2821,2710
0,1822,7.29,3.86,4.4,7.29,s03,2237,2972,2354,2831,2778,2064,4009,2990,2381,2625,2908,2802,2634
0,1856,7.36,2.92,3.81,5.88,s03,2211,2946,2362,2829,2744,2054,4006,2947,2374,2587,2862,2768,2624
0,1775,7.15,4.37,4.03,7.54,s03,2012,2915,2187,2758,2663,1969,3881,2922,2293,2540,2825,2734,2575
0,1865,4.56,1.78,4.1,5.41,s03,2134,2998,2352,2884,2755,2062,3975,3015,2375,2624,2953,2851,2672
0,1813,7.1,2.13,5.04,6.32,s03,2131,3017,2244,2813,2752,1990,3917,2993,2403,2639,2923,2787,2660
0,1911,8.14,3.17,5.47,7.97,s03,2249,3050,2419,2910,2840,2159,3968,3100,2431,2714,2995,2873,2724
0,1878,6.26,3.13,4.32,5.23,s03,2159,2928,2232,2742,2697,2135,3942,2944,2320,2580,2850,2729,2607
0,1799,4.99,6.44,4.54,6.55,s03,2163,3005,2243,2786,2806,2055,3916,3014,2386,2665,2919,2762,2657
0,1806,4.94,1.0,4.13,6.21,s03,2081,2923,2242,2773,2700,1968,3925,2956,2317,2572,2859,2744,2615
0,1838,3.65,2.5,3.03,5.92,s03,2089,2976,2237,2802,2717,1996,3733,2994,2351,2602,2897,2818,2633
0,1847,3.31,2.27,1.91,6.78,s03,2112,2992,2335,2852,2750,2158,3754,3003,2371,2628,2944,2828,2647
0,1757,3.45,1.41,2.9,6.87,s03,2120,2916,2203,2741,2680,1906,4050,2915,2310,2571,2830,2717,2588
0,1754,4.67,1.18,2.64,6.94,s03,2136,2962,2225,2762,2723,1940,3829,2955,2341,2590,2857,2746,2596
0,1864,6.72,3.29,4.46,6.22,s03,2193,3017,2317,2855,2780,2048,3813,3035,2420,2667,2968,2850,2682
0,1824,5.59,2.51,2.65,6.59,s03,2002,2836,2131,2662,2561,2106,3481,2842,2237,2468,2738,2663,2551
0,1846,4.47,3.85,3.08,7.14,s03,2092,2995,2258,2828,2724,1968,3947,2996,2371,2623,2918,2793,2649
0,1873,3.87,3.09,2.72,6.12,s03,2162,2858,2198,2737,2659,2090,3856,2893,2285,2518,2806,2712,2558
0,1800,4.44,4.06,4.63,5.0,s03,2070,2911,2216,2753,2693,1949,3635,2917,2331,2575,2854,2763,2591
0,1778,5.17,4.49,5.91,6.55,s03,2114,2956,2190,2728,2741,2008,3799,2964,2334,2593,2843,2702,2616
0,1785,4.05,3.83,5.5,4.99,s03,2076,2842,2122,2701,2626,1988,3939,2889,2276,2525,2815,2684,2543
0,1810,4.72,8.12,5.85,5.33,s03,2052,2948,2186,2765,2722,2035,3666,2959,2328,2589,2868,2742,2627
0,1831,3.18,5.04,5.65,3.15,s03,2092,2860,2160,2731,2606,2143,3933,2875,2242,2514,2806,2701,2563
0,1781,5.01,5.5,4.54,3.86,s03,2011,2846,2164,2700,2623,1996,3659,2884,2245,2512,2781,2669,2555
0,1759,4.92,6.05,5.46,5.26,s03,2142,2858,2145,2632,2652,1908,3770,2858,2243,2504,2765,2633,2524
0,1766,4.53,5.68,5.65,5.49,s03,2119,2917,2195,2724,2719,2014,3831,2930,2322,2551,2852,2727,2605
0,1763,4.33,6.21,5.68,4.62,s03,2158,2881,2170,2680,2678,1974,3881,2892,2321,2548,2809,2691,2564
0,1843,5.38,4.33,5.67,5.29,s03,2050,2941,2265,2847,2682,1980,3880,2962,2321,2583,2897,2771,2630
0,3008,6.68,5.03,8.22,8.14,s04,3803,3223,3424,2991,3037,3825,3503,3286,3013,2392,3656,2842,3322
0,2933,4.06,3.31,1.99,4.05,s04,3698,3130,3319,2900,2917,3724,3443,3192,2879,2227,3547,2768,3204
0,2986,8.95,8.1,5.85,8.12,s04,3895,3272,3486,3049,3089,3894,3787,3370,3068,2359,3740,2912,3382
0,3195,6.1,3.92,4.19,3.94,s04,4054,3488,3702,3285,3335,4063,3851,3565,3323,2664,3921,3107,3603
0,3077,4.06,5.04,4.15,4.88,s04,3945,3385,3623,3155,3196,3991,3512,3447,3162,2566,3818,3017,3524
0,3107,5.01,2.95,4.04,5.09,s04,3868,3273,3522,3084,3115,3871,3604,3369,3092,2465,3717,2951,3398
0,3161,2.94,1.99,2.92,2.1,s04,3941,3416,3614,3167,3230,3973,3958,3474,3220,2596,3853,3028,3511
0,2918,5.97,5.05,7.14,5.85,s04,3697,3099,3302,2886,2938,3698,3658,3178,2894,2251,3561,2758,3220
0,3144,6.05,3.96,5.06,5.04,s04,3900,3374,3575,3087,3152,3913,3593,3401,3136,2522,3782,2941,3466
0,3023,3.15,3.99,4.12,4.04,s04,3872,3292,3511,3062,3099,3901,3889,3372,3087,2394,3733,2943,3408
0,3041,7.24,7.08,6.08,7.01,s04,3862,3317,3518,3059,3123,3878,3682,3350,3102,2441,3737,2903,3443
0,3095,5.04,5.04,5.04,5.08,s04,3911,3356,3569,3112,3184,3949,3901,3406,3128,2507,3761,2940,3473
0,3031,4.12,4.88,5.05,5.17,s04,3953,3356,3562,3146,3179,3972,3605,3454,3155,2483,3800,3011,3475
0,3090,6.96,6.97,5.23,6.21,s04,3856,3313,3484,3052,3097,3909,3583,3335,3054,2419,3698,2899,3401
0,3100,6.96,7.05,3.28,6.97,s04,3974,3394,3611,3164,3178,4016,3782,3472,3172,2475,3846,3038,3497
0,2942,2.51,2.95,1.08,3.03,s04,3838,3281,3498,3042,3127,3892,3512,3329,3072,2433,3720,2841,3426
0,3149,7.01,5.95,6.04,7.03,s04,3985,3387,3621,3166,3197,3977,4014,3490,3181,2515,3818,3026,3516
0,2796,4.9,2.85,4.72,2.87,s04,3649,3051,3281,2832,2881,3661,3749,3126,2858,2250,3505,2695,3184
0,2949,7.09,6.22,5.92,6.21,s04,3794,3225,3423,2974,3039,3808,3493,3288,3008,2406,3645,2829,3352
0,2931,8.17,8.05,6.08,9.0,s04,3836,3245,3460,3037,3063,3838,3574,3320,3025,2325,3679,2864,3353
0,3043,1.77,2.06,3.73,2.26,s04,3884,3368,3584,3109,3183,3911,3617,3399,3166,2546,3794,2952,3467
0,3043,1.86,2.78,4.97,3.92,s04,3898,3336,3565,3107,3171,3961,3658,3405,3121,2476,3771,2936,3466
0,2935,1.86,2.04,1.0,5.99,s04,3717,3172,3352,2941,2995,3749,3776,3223,2972,2371,3587,2786,3275
0,3045,2.71,5.13,2.04,7.19,s04,3864,3310,3530,3090,3138,3872,3585,3372,3109,2468,3734,2958,3415
0,3036,7.0,6.04,5.01,6.08,s04,3878,3294,3494,3081,3096,3895,3658,3371,3066,2400,3726,2919,3396
0,3004,6.0,4.09,3.96,5.04,s04,3903,3334,3542,3095,3138,3949,3696,3393,3089,2445,3769,2940,3439
0,2965,6.14,6.13,4.92,7.08,s04,3747,3143,3380,2922,2981,3757,3573,3239,2922,2275,3592,2788,3275
0,2919,2.17,6.96,3.03,8.06,s04,3730,3140,3332,2929,2991,3732,3481,3210,2939,2323,3570,2786,3238
0,2939,1.85,4.88,1.95,8.13,s04,3722,3128,3348,2951,2940,3732,3765,3237,2935,2236,3578,2819,3236
0,3004,3.1,3.08,3.06,7.05,s04,3870,3293,3539,3066,3135,3917,3706,3335,3089,2424,3754,2887,3410
0,3075,2.01,2.23,1.0,1.94,s04,3957,3458,3677,3206,3259,4015,3599,3526,3253,2627,3899,3057,3591
0,3204,1.01,6.15,1.09,2.1,s04,4082,3536,3751,3302,3349,4097,3870,3606,3341,2673,3979,3150,3647
0,3097,1.0,1.97,3.67,1.95,s04,3898,3354,3573,3095,3181,3921,3930,3391,3123,2483,3780,2942,3452
0,3130,2.17,2.18,3.46,1.92,s04,4028,3487,3688,3241,3305,4049,3402,3517,3258,2603,3902,3061,3603
0,3041,2.03,2.88,1.06,3.37,s04,3843,3296,3497,3074,3120,3863,3589,3357,3093,2456,3691,2915,3422
0,3150,2.72,2.76,1.99,2.33,s04,4060,3550,3733,3309,3368,4059,3759,3587,3375,2701,3955,3150,3632
0,3130,1.0,1.0,1.0,1.0,s04,3991,3510,3713,3244,3347,4036,3627,3535,3310,2669,3902,3090,3636
0,3180,1.79,1.85,1.78,1.99,s04,4034,3495,3703,3259,3290,4059,3726,3564,3281,2603,3912,3086,3582
0,2962,1.92,2.96,1.82,2.01,s04,3845,3247,3479,3057,3081,3851,3710,3326,3071,2420,3719,2888,3369
0,3620,1.86,2.91,1.88,3.0,s04,4337,3957,4139,3726,3800,4367,4217,3970,3797,3232,4267,3579,4068
0,2813,6.97,4.9,2.99,5.92,s05,3100,2660,3030,2507,2420,2068,3673,2953,2907,2253,3100,2774,3180
0,2930,9.0,9.0,7.97,9.0,s05,3164,2799,3139,2651,2575,2100,3755,3077,2996,2368,3173,2909,3258
0,2818,4.95,4.88,2.06,7.01,s05,3109,2700,3044,2514,2472,2135,3629,3010,2863,2254,3067,2771,3133
0,2803,8.24,5.08,6.01,7.04,s05,3106,2664,3002,2489,2423,2094,3660,2964,2870,2228,3076,2740,3147
0,2648,3.04,4.01,5.08,4.04,s05,3011,2514,2864,2374,2344,2028,3422,2793,2762,2116,2988,2564,3089
0,2947,8.09,7.08,4.94,7.14,s05,3181,2793,3146,2627,2512,2123,3706,3082,2988,2346,3194,2888,3271
0,2815,5.12,6.97,5.04,4.96,s05,3112,2678,3023,2515,2426,2004,3680,2961,2871,2256,3067,2758,3175
0,2870,8.17,5.91,4.04,7.04,s05,3150,2704,3081,2581,2529,2118,3578,3033,2937,2266,3142,2802,3215
0,2842,6.94,4.95,3.99,4.04,s05,3175,2696,3054,2577,2530,2112,3797,3023,2925,2285,3118,2823,3224
0,2782,3.03,4.0,8.03,3.97,s05,3095,2644,3017,2494,2424,2053,3581,2939,2852,2221,3049,2727,3151
0,2826,9.0,6.0,6.03,7.1,s05,3093,2700,3057,2540,2465,2037,3730,2972,2871,2261,3101,2778,3160
0,2760,7.08,4.03,3.12,8.0,s05,3067,2604,2954,2405,2343,1995,3872,2875,2822,2207,3022,2710,3103
0,2839,4.94,2.88,4.0,4.12,s05,3157,2674,3042,2561,2489,2100,3633,3001,2948,2273,3165,2797,3256
0,2793,7.21,4.01,2.95,8.05,s05,3181,2652,2985,2542,2492,2121,3536,2915,2930,2207,3120,2712,3206
0,2822,6.97,6.05,1.0,7.99,s05,3200,2680,3040,2544,2486,2127,3676,2985,2904,2237,3112,2752,3206
0,2851,5.96,5.04,4.01,7.97,s05,3187,2772,3129,2748,2679,2161,3627,3033,2960,2263,3161,2746,3275
0,2914,6.88,2.96,3.01,6.91,s05,3265,2736,3125,2632,2563,2154,3775,3065,3034,2355,3251,2868,3322
0,2890,8.05,3.97,3.01,6.04,s05,3182,2732,3107,2571,2498,2072,3944,3024,2996,2317,3192,2840,3266
0,2767,8.03,4.97,4.05,8.04,s05,3081,2594,2941,2432,2384,2036,3518,2906,2887,2221,3109,2712,3186
0,2735,7.0,1.99,1.0,8.04,s05,3052,2563,2937,2422,2366,2039,3542,2881,2805,2167,3022,2643,3109
0,2719,4.0,2.87,2.99,3.97,s05,3165,2560,2890,2425,2396,2148,3646,2881,2913,2171,3138,2670,3231
0,2849,6.99,7.95,1.99,8.97,s05,3198,2736,3037,2625,2541,2187,3530,2984,2909,2251,3140,2761,3222
0,2839,1.0,7.05,7.0,1.96,s05,3186,2678,3027,2602,2511,2094,3781,2972,2992,2258,3187,2778,3265
0,2732,4.0,5.04,4.12,6.03,s05,3102,2573,2926,2441,2424,2057,3483,2905,2866,2182,3077,2632,3189
0,2681,5.96,4.87,3.06,7.05,s05,3066,2503,2877,2411,2377,2016,3562,2806,2824,2112,3055,2588,3150
0,2644,7.96,3.0,1.0,9.0,s05,2970,2496,2855,2361,2287,1956,3695,2789,2716,2146,2949,2621,3013
0,2799,7.0,1.99,2.0,6.27,s05,3163,2638,3004,2506,2455,2100,3565,2931,2916,2253,3134,2747,3199
0,2710,3.9,4.08,2.86,5.04,s05,3110,2552,2868,2453,2400,2080,3322,2824,2820,2133,3060,2642,3127
0,2766,4.04,3.01,1.91,5.05,s05,3131,2567,2934,2424,2395,2180,3615,2923,2905,2169,3123,2670,3196
0,2551,2.94,8.1,9.0,9.0,s05,2894,2461,2791,2288,2237,2014,3495,2786,2643,2028,2878,2531,2951
0,2886,6.9,6.04,7.95,4.05,s05,3163,2693,3063,2581,2505,2121,3790,3013,2969,2294,3144,2825,3253
0,2788,1.94,4.12,2.06,1.94,s05,3121,2656,2974,2493,2415,2095,3468,2909,2872,2234,3066,2726,3153
0,2717,5.17,9.0,8.01,3.99,s05,3083,2632,2916,2488,2422,2159,3655,2846,2843,2200,3068,2695,3099
0,2741,6.03,6.97,8.1,6.0,s05,3092,2602,2881,2485,2412,2110,3467,2849,2856,2200,3075,2658,3138
0,2684,4.86,8.1,8.17,3.97,s05,3030,2518,2888,2349,2291,2011,3604,2842,2714,2124,2924,2565,3044
0,2666,4.91,9.0,9.0,3.88,s05,3007,2572,2862,2379,2317,2099,3549,2822,2741,2137,2972,2639,3005
0,2538,1.91,7.01,6.04,1.0,s05,2832,2435,2790,2264,2210,1834,3784,2715,2571,1998,2801,2480,2883
0,2807,1.0,3.91,6.13,1.04,s05,3080,2654,3044,2521,2440,1981,3621,2977,2887,2220,3060,2765,3173
0,2775,1.0,4.86,7.05,1.0,s05,3100,2604,2982,2522,2439,2056,3572,2928,2908,2199,3079,2732,3185
0,2618,7.0,6.96,8.0,2.92,s05,2941,2470,2846,2255,2214,1912,4070,2781,2659,2069,2865,2526,2983
0,2907,8.19,4.13,6.56,7.47,s06,2761,2585,3495,2324,2650,2946,3344,2581,2304,2952,2195,2073,2319
0,3004,6.83,6.62,7.08,5.96,s06,2856,2674,3626,2374,2736,3060,3268,2622,2350,3015,2327,2155,2345
0,2973,7.69,5.99,6.87,6.49,s06,2835,2649,3616,2346,2665,3013,3398,2581,2285,3032,2184,2064,2354
0,2994,7.55,6.79,7.56,7.05,s06,2848,2689,3587,2325,2756,3030,3442,2653,2362,3040,2337,2136,2328
0,3330,7.01,7.38,6.55,7.36,s06,3122,3067,3902,2504,3023,3395,3674,2850,2550,3370,2662,2387,2462
0,3018,8.05,4.5,7.58,6.63,s06,2884,2664,3648,2301,2789,3103,3373,2622,2353,2991,2330,2155,2349
0,3354,8.26,8.27,7.28,8.0,s06,3153,3103,3922,2583,3059,3414,3590,2917,2597,3434,2660,2469,2510
0,3023,7.05,2.69,5.0,6.83,s06,2880,2730,3662,2356,2765,3078,3357,2643,2377,3063,2324,2160,2356
0,3081,7.87,5.13,6.1,8.28,s06,2927,2810,3685,2384,2803,3139,3459,2669,2382,3146,2349,2157,2380
0,2969,7.37,5.46,8.4,8.03,s06,2832,2655,3596,2359,2674,3002,3408,2615,2378,3036,2273,2065,2372
0,3141,4.99,2.5,7.31,4.03,s06,2980,2876,3728,2473,2876,3180,3484,2734,2473,3191,2445,2298,2474
0,2969,7.17,3.12,6.87,2.99,s06,2785,2674,3513,2406,2647,2947,3227,2625,2354,3057,2184,2095,2400
0,2944,7.79,3.95,7.38,6.99,s06,2766,2607,3542,2349,2712,2942,3472,2642,2348,2989,2187,2128,2406
0,2963,6.32,3.49,7.4,5.38,s06,2807,2600,3544,2408,2875,2992,3301,2683,2373,2950,2334,2253,2475
0,3158,5.59,3.79,3.68,4.04,s06,2982,2919,3745,2477,2875,3187,3594,2752,2508,3256,2440,2280,2459
0,2974,5.06,7.45,3.67,7.08,s06,2778,2678,3533,2271,2690,2990,3477,2564,2335,3016,2226,2047,2310
0,3023,6.72,3.63,2.88,6.15,s06,2864,2705,3633,2494,2771,3046,3376,2708,2476,3090,2249,2145,2477
0,3094,7.59,5.81,6.14,6.37,s06,2911,2840,3715,2417,2847,3126,3763,2736,2411,3147,2388,2219,2421
0,2996,7.41,5.6,6.67,6.91,s06,2850,2713,3633,2361,2768,3049,3340,2706,2388,3056,2305,2177,2406
0,3153,5.01,3.05,6.59,3.03,s06,2989,2860,3741,2418,2904,3200,3535,2728,2448,3179,2461,2259,2393
0,2858,6.28,4.59,3.42,6.13,s06,2697,2586,3440,2288,2564,2873,3322,2501,2307,2959,2183,2070,2355
0,2847,7.56,3.19,2.46,7.23,s06,2703,2521,3418,2339,2675,2852,3133,2603,2300,2899,2221,2148,2393
0,2951,3.47,3.54,3.59,4.55,s06,2803,2682,3586,2341,2755,3003,3339,2683,2358,3002,2273,2154,2417
0,2977,3.5,4.01,3.41,4.22,s06,2843,2656,3607,2443,2819,3009,3277,2732,2435,3026,2334,2242,2497
0,3010,7.09,6.42,3.49,6.36,s06,2856,2725,3631,2386,2864,3047,3386,2690,2387,3061,2389,2251,2408
0,2847,5.08,3.37,6.22,2.79,s06,2688,2539,3370,2328,2719,2840,3174,2613,2377,2906,2191,2155,2396
0,2885,5.08,3.47,3.74,3.08,s06,2723,2541,3415,2274,2594,2892,3261,2539,2358,2946,2191,2049,2323
0,2871,6.42,3.62,7.78,6.99,s06,2734,2526,3487,2281,2589,2917,3381,2541,2265,2878,2221,2038,2298
0,2909,4.27,5.45,3.71,6.63,s06,2765,2520,3454,2275,2690,2937,3099,2598,2295,2911,2225,2079,2314
0,2900,6.99,3.79,3.83,7.1,s06,2723,2497,3435,2250,2597,2912,3108,2457,2270,2873,2168,1994,2270
0,3296,3.65,3.49,4.05,6.36,s06,3131,2994,3911,2484,3018,3382,3943,2824,2554,3303,2638,2369,2440
0,3104,6.99,4.5,7.12,8.05,s06,2943,2784,3690,2355,2832,3137,3473,2697,2400,3128,2411,2201,2363
0,2867,6.68,4.37,7.96,3.88,s06,2735,2450,3439,2274,2615,2904,3308,2493,2264,2848,2183,2021,2259
0,2902,3.31,4.45,6.23,2.36,s06,2743,2675,3502,2395,2609,2912,3229,2612,2350,3035,2167,2099,2401
0,2973,3.96,5.71,3.06,3.71,s06,2809,2643,3594,2279,2754,3027,3413,2599,2347,2963,2315,2158,2352
0,2924,5.71,6.21,8.49,7.46,s06,2783,2633,3484,2388,2657,2918,3491,2571,2373,3011,2224,2128,2438
0,2936,4.83,5.74,4.56,2.18,s06,2768,2611,3453,2344,2654,2939,3360,2615,2417,3001,2240,2125,2368
0,3406,4.44,5.58,3.12,5.04,s06,3231,3101,3963,2510,3090,3504,3847,2891,2577,3403,2736,2461,2463
0,2993,6.56,6.5,7.53,7.4,s06,2830,2708,3605,2356,2746,3018,3379,2630,2335,3030,2368,2180,2348
0,3030,4.85,4.64,5.04,5.03,s06,2888,2748,3665,2396,2809,3092,3534,2699,2358,3081,2335,2157,2383
0,2780,8.1,4.01,1.92,7.06,s07,2769,2744,2592,2696,2912,2633,3533,2798,3142,2560,2794,3144,3046
0,2916,7.15,5.96,3.96,6.91,s07,2913,2986,2685,2997,2958,2839,3923,3040,3245,2556,2936,3409,3242
0,2745,7.1,4.12,3.03,6.09,s07,2770,2735,2541,2793,2882,2683,3734,2846,3111,2504,2823,3183,3072
0,2764,7.08,5.03,3.0,2.97,s07,2769,2718,2563,2883,2957,2785,3783,2945,3177,2542,2788,3277,3164
0,2758,7.05,6.99,6.04,8.05,s07,2766,2790,2580,2775,2948,2754,3791,2874,3148,2606,2881,3233,3100
0,2941,6.97,6.04,3.0,7.03,s07,3000,2979,2700,2913,2950,2812,3780,2938,3199,2673,3055,3350,3159
0,2787,7.08,7.06,7.06,7.03,s07,2775,2791,2569,2916,2915,2804,3935,2976,3210,2465,2816,3315,3161
0,2736,7.0,5.99,7.04,7.06,s07,2768,2671,2571,2787,2998,2741,3984,2893,3193,2642,2724,3177,3184
0,2950,6.99,4.0,7.08,7.05,s07,2945,2995,2739,2959,2975,2823,3817,2990,3246,2660,3043,3391,3223
0,2704,7.09,7.04,8.06,7.09,s07,2649,2534,2431,2765,2937,2729,3897,2900,3122,2494,2680,3187,3142
0,2709,7.03,7.09,2.97,8.06,s07,2740,2666,2556,2715,2940,2711,3663,2836,3155,2604,2787,3162,3082
0,2708,6.99,4.05,5.0,7.1,s07,2704,2673,2546,2688,2980,2665,3661,2795,3134,2666,2820,3157,3109
0,2652,8.0,2.96,1.94,7.1,s07,2600,2586,2421,2619,2833,2588,3661,2747,3007,2465,2734,3091,2996
0,2656,7.09,5.03,4.97,7.12,s07,2624,2603,2449,2640,2858,2650,3596,2743,3017,2522,2769,3111,2999
0,2964,7.99,3.01,1.0,7.03,s07,2951,2991,2725,3025,2996,2861,4081,3068,3253,2591,2962,3422,3279
0,2723,3.03,5.04,3.95,7.05,s07,2774,2835,2658,2660,3020,2551,3403,2653,3254,2809,2876,3065,3095
0,2849,7.12,2.05,3.0,8.1,s07,2796,2723,2629,2893,3101,2829,4080,3000,3281,2627,2804,3327,3306
0,2869,7.03,3.06,5.03,7.01,s07,2948,2928,2660,2755,2926,2648,3598,2794,3110,2638,2968,3198,3031
0,2785,6.99,6.04,6.03,7.0,s07,2788,2809,2566,2933,2911,2792,3965,2961,3198,2457,2871,3287,3163
0,2710,8.06,6.06,2.05,7.14,s07,2706,2645,2454,2834,2931,2767,3959,2900,3129,2451,2736,3214,3130
0,2575,3.12,5.99,6.06,6.94,s07,2498,2323,2407,2569,2932,2603,3676,2745,3087,2561,2643,3041,3052
0,2960,3.05,2.03,1.0,6.94,s07,2962,2973,2690,2821,2876,2667,3730,2830,3097,2623,3020,3285,3069
0,2677,3.01,3.04,5.03,6.96,s07,2682,2620,2556,2671,2967,2601,3769,2754,3168,2655,2758,3108,3071
0,2747,1.97,7.03,1.0,7.1,s07,2762,2811,2552,2708,2837,2595,3705,2741,3014,2500,2832,3127,2989
0,2740,2.99,3.03,1.99,7.1,s07,2829,2764,2576,2750,2937,2683,3584,2808,3117,2641,2814,3151,3063
0,2811,2.0,4.04,3.13,7.08,s07,2843,2850,2596,2799,2890,2681,3748,2808,3080,2548,2855,3178,3047
0,2808,6.09,3.04,1.96,7.97,s07,2796,2822,2566,2840,2933,2755,3733,2920,3126,2515,2834,3255,3144
0,2558,2.05,2.0,3.01,6.95,s07,2539,2259,2458,2585,2974,2595,3506,2769,3160,2642,2619,2997,3062
0,2664,7.09,2.94,1.0,7.0,s07,2648,2486,2423,2601,2856,2629,3738,2786,3029,2476,2656,3048,3015
0,2744,3.09,6.08,5.04,2.96,s07,2737,2741,2521,2769,2869,2688,3705,2856,3100,2508,2765,3168,3070
0,2696,6.96,7.03,5.03,7.05,s07,2659,2470,2459,2714,2943,2693,3899,2869,3138,2535,2664,3161,3122
0,2563,4.96,7.09,8.05,7.99,s07,2502,2148,2453,2430,2964,2553,3448,2696,3123,2636,2380,2965,3040
0,2646,4.97,7.08,6.99,7.0,s07,2687,2422,2404,2654,2871,2657,3738,2810,3083,2492,2624,3075,3049
0,2691,4.01,7.13,7.06,2.0,s07,2735,2625,2508,2738,2929,2726,3672,2881,3124,2532,2708,3161,3112
0,2522,5.01,8.05,8.09,6.92,s07,2510,2188,2439,2355,2928,2456,3348,2593,3098,2628,2506,2902,2971
0,2758,8.1,9.0,7.0,7.01,s07,2812,2786,2596,2690,2947,2610,3468,2760,3164,2674,2883,3133,3066
0,2772,5.05,7.04,7.12,7.03,s07,2818,2758,2591,2810,2913,2733,3801,2887,3176,2565,2827,3221,3103
0,2738,5.03,7.1,7.03,5.99,s07,2803,2658,2525,2708,2935,2729,3832,2869,3137,2580,2734,3195,3094
0,2863,7.01,7.01,7.05,7.08,s07,2851,2892,2648,2924,2962,2778,3807,2967,3206,2598,2917,3348,3206
0,2631,7.01,7.03,6.03,7.05,s07,2532,2363,2468,2545,2941,2585,3637,2761,3123,2600,2599,3019,3061
0,2203,7.6,6.78,7.86,7.47,s08,2628,2331,2306,2113,1938,2196,3823,2478,2408,2306,2346,2459,2003
0,2203,5.04,6.51,5.65,6.32,s08,2753,2422,2255,2144,1903,2155,3718,2483,2306,2240,2358,2468,1954
0,2340,8.15,6.96,7.33,7.96,s08,2547,2169,2245,1928,1808,2092,3555,2375,2137,2140,2026,2300,1959
0,2494,6.82,8.23,5.0,8.12,s08,2690,2355,2369,2196,1952,2184,3808,2494,2498,2350,2282,2450,2038
0,2208,4.41,7.72,5.62,6.67,s08,2610,2089,2234,2155,1914,2154,3793,2436,2483,2305,2122,2422,1939
0,2413,7.4,7.26,5.94,7.04,s08,2581,2297,2365,2139,1977,2223,3619,2498,2331,2311,2034,2327,2022
0,2325,5.04,5.04,5.04,4.95,s08,2628,2245,2378,2114,1944,2193,3846,2526,2420,2360,2249,2453,2032
0,2484,8.82,6.4,6.31,8.53,s08,2912,2506,2550,2477,2073,2293,3871,2717,2762,2561,2664,2750,2140
0,2382,8.78,7.24,6.35,8.22,s08,2706,2413,2429,2193,1985,2265,3938,2609,2528,2402,2525,2628,2095
0,2676,4.97,3.6,6.94,3.77,s08,2866,2481,2538,2397,2053,2314,3750,2622,2596,2492,2326,2622,2138
0,2227,8.41,5.0,5.12,7.54,s08,2553,2137,2251,2008,1839,2136,3877,2435,2333,2251,2168,2410,1921
0,2349,8.47,6.54,4.01,8.19,s08,2670,2192,2331,2088,1900,2227,3862,2510,2371,2277,2157,2476,1980
0,2892,7.9,5.09,3.9,8.1,s08,3095,2738,2672,2595,2150,2444,4208,2748,2860,2559,2854,2914,2205
0,2257,6.88,4.97,5.12,7.38,s08,2672,2186,2337,2096,1911,2187,3684,2542,2326,2315,2167,2466,2032
0,2358,8.33,5.04,5.17,7.31,s08,2768,2157,2398,2160,1982,2359,3991,2622,2556,2414,2284,2634,2008
0,2597,4.21,5.06,5.0,6.24,s08,2538,2325,2175,2055,1744,1845,3446,2193,2156,2096,1885,2026,1945
0,2630,6.67,4.77,5.04,6.6,s08,2587,2336,2322,2113,1922,2113,3685,2398,2388,2271,2028,2250,2050
0,2257,7.21,4.03,5.44,6.64,s08,2598,2232,2296,2163,1985,2254,3730,2492,2396,2302,2251,2422,2043
0,2606,5.04,6.28,5.04,5.81,s08,2903,2505,2508,2374,2017,2398,3846,2676,2528,2437,2300,2748,2132
0,2441,6.74,4.21,6.44,7.08,s08,2751,2537,2337,2215,1944,2194,3668,2445,2331,2266,2377,2492,2035
0,2297,4.68,6.41,6.27,7.33,s08,2624,2166,2297,2152,1920,2169,3710,2435,2467,2311,2088,2377,1954
0,2675,4.23,5.79,1.19,7.79,s08,2817,2551,2448,2318,1975,2147,3723,2519,2563,2400,2237,2470,2031
0,2475,3.59,3.68,3.44,6.6,s08,2707,2334,2406,2287,2005,2079,3648,2501,2608,2429,2229,2383,2070
0,2690,4.15,4.56,3.35,7.86,s08,2702,2495,2348,2142,1903,2068,3687,2382,2284,2228,2193,2333,2051
0,2507,3.72,3.9,3.5,7.71,s08,2691,2226,2345,2135,1969,2191,3585,2469,2407,2317,2112,2401,2038
0,2595,4.99,4.99,5.04,7.44,s08,2939,2517,2521,2380,2024,2424,3914,2717,2514,2479,2233,2658,2108
0,2594,4.46,4.59,6.65,6.21,s08,2842,2459,2501,2364,2067,2369,3720,2636,2585,2468,2357,2641,2127
0,2601,5.04,4.96,5.04,8.68,s08,2593,2458,2199,2080,1829,1941,3634,2187,2132,2123,2053,2099,1954
0,2432,2.78,2.99,3.62,7.15,s08,2692,2290,2360,2240,1944,2178,3877,2434,2518,2385,2184,2448,2021
0,2227,1.4,3.13,1.21,7.95,s08,2569,2045,2242,1960,1761,1989,3972,2372,2278,2204,1892,2241,1868
0,2234,1.45,6.6,1.45,3.27,s08,2531,2101,2245,2051,1884,2129,3621,2415,2354,2270,2034,2358,1944
0,2428,6.33,8.23,8.23,8.83,s08,2822,2540,2492,2360,2073,2392,3976,2702,2650,2446,2630,2735,2119
0,2068,4.44,6.44,5.94,5.51,s08,2487,2099,2239,2172,1947,2157,3554,2404,2535,2311,2030,2292,1930
0,2617,5.05,6.83,5.92,6.69,s08,2757,2468,2414,2247,1955,2131,3612,2513,2508,2397,2204,2438,2000
0,2894,3.62,6.67,6.74,5.9,s08,2993,2732,2592,2531,2158,2365,3914,2649,2721,2536,2548,2697,2214
0,2807,1.21,7.94,3.03,9.0,s08,3230,2922,2947,2888,2504,2954,4294,3195,3234,2916,3121,3283,2501
0,2306,5.06,3.31,3.21,4.55,s08,2616,2106,2335,2088,1925,2194,3767,2495,2387,2314,2032,2428,2001
0,2588,4.72,4.69,5.65,5.65,s08,3131,2705,2618,2510,2134,2438,3966,2840,2731,2591,2703,2904,2171
0,2445,5.05,3.46,3.45,2.88,s08,2773,2336,2451,2410,2090,2153,3555,2557,2681,2531,2206,2460,2047
0,2569,3.13,5.03,4.95,3.81,s08,2724,2483,2345,2199,1914,2129,3822,2475,2418,2306,2335,2470,2013
0,2832,5.05,4.04,3.01,4.97,s09,2674,3903,3147,3055,2421,2595,3663,3086,2879,3582,2780,2720,2402
0,2922,7.08,6.14,5.0,7.03,s09,3011,3982,3198,3144,2447,2702,3718,3136,2935,3682,2729,2757,2444
0,3038,7.08,7.14,7.09,7.06,s09,2812,4097,3316,3222,2458,2704,3857,3291,3048,3819,2887,2923,2627
0,2999,5.99,5.97,5.03,6.09,s09,2755,4093,3304,3198,2541,2686,3653,3277,3047,3783,2854,2883,2562
0,2889,4.99,4.96,3.94,5.12,s09,2856,3997,3143,3058,2514,2700,3774,3128,2932,3632,2770,2820,2487
0,3065,7.04,6.19,6.13,7.08,s09,2822,4053,3407,3259,2500,2881,3981,3287,3128,3867,3004,2886,2538
0,2937,5.08,5.01,3.9,5.03,s09,2804,4005,3254,3141,2489,2698,3849,3182,2994,3732,2848,2789,2472
0,3090,6.15,5.0,5.03,5.99,s09,3173,4164,3325,3491,2557,2793,3819,3303,3057,3814,2882,2990,2625
0,3042,5.96,4.05,4.04,5.01,s09,2883,4052,3330,3263,2632,2836,4037,3259,3122,3800,3014,2945,2542
0,2844,3.94,3.96,3.99,3.96,s09,2893,3953,3119,3175,2483,2604,3759,3064,2852,3598,2693,2740,2451
0,3050,7.12,7.1,7.14,7.0,s09,2790,4086,3400,3270,2444,2833,3979,3278,3095,3837,2973,2956,2564
0,3095,7.08,6.99,7.09,6.13,s09,2996,4141,3433,3420,2550,2885,4021,3333,3159,3897,3067,3031,2585
0,3105,8.15,7.04,8.17,8.08,s09,3031,4156,3378,3430,2573,2780,3809,3351,3135,3879,2936,3006,2659
0,3170,7.0,6.13,7.12,7.04,s09,2989,4202,3510,3376,2568,2884,3992,3404,3220,3963,3036,3014,2649
0,3009,6.21,6.01,4.99,6.06,s09,2760,4074,3325,3209,2532,2717,3931,3278,3045,3814,2920,2916,2561
0,2967,4.05,4.0,3.87,6.04,s09,2765,4080,3298,3201,2508,2630,3522,3259,3033,3784,2929,2936,2545
0,3143,6.03,6.04,5.03,6.06,s09,2986,4198,3492,3421,2541,2881,4032,3391,3213,3953,3052,3029,2637
0,2884,4.9,4.97,4.96,5.03,s09,2773,3934,3150,3059,2565,2582,3493,3144,2907,3637,2751,2807,2508
0,3129,3.97,4.03,3.94,4.99,s09,3201,4139,3397,3319,2613,2859,3875,3329,3136,3835,2936,3012,2629
0,2949,5.12,4.97,5.0,5.29,s09,2846,4045,3261,3211,2423,2657,3759,3202,2986,3723,2911,2878,2511
0,3013,4.04,4.01,4.12,4.0,s09,2807,4097,3235,3175,2548,2495,3588,3283,2998,3759,2839,2996,2663
0,3039,3.99,4.0,3.97,4.99,s09,2975,4154,3311,3282,2604,2754,3695,3315,3048,3830,2932,3006,2644
0,3052,5.0,4.97,3.09,5.97,s09,2845,4148,3322,3263,2532,2620,3835,3347,3069,3812,2895,2984,2650
0,3056,4.03,5.01,6.08,4.97,s09,2903,4118,3347,3260,2573,2760,3764,3303,3091,3839,2903,2951,2619
0,2994,5.04,4.04,5.04,5.04,s09,3019,4087,3284,3400,2533,2748,3794,3219,3016,3793,2865,2910,2586
0,2967,4.1,4.1,4.03,5.12,s09,2726,4022,3202,3099,2459,2516,3661,3202,2953,3707,2782,2916,2609
0,3068,5.04,5.05,4.97,5.03,s09,3083,4128,3374,3369,2597,2832,3881,3314,3115,3865,3009,3010,2630
0,2817,2.96,7.08,2.96,6.05,s09,2736,3924,3080,3036,2480,2562,3391,3107,2834,3556,2666,2749,2475
0,3029,3.99,4.15,3.0,4.99,s09,2889,4139,3299,3227,2563,2612,3553,3305,3034,3800,2863,2986,2671
0,2996,4.04,6.06,3.96,6.06,s09,2919,4092,3230,3328,2534,2589,3466,3245,2978,3733,2812,2950,2596
0,3114,6.06,6.06,5.03,6.05,s09,2858,4189,3361,3294,2600,2653,3548,3401,3104,3861,2934,3067,2774
0,2940,3.1,5.97,3.06,4.06,s09,2699,3997,3224,3124,2526,2608,3572,3214,2989,3721,2832,2872,2552
0,2931,3.08,4.06,2.96,4.13,s09,2664,4003,3154,3100,2430,2466,3546,3210,2936,3665,2773,2872,2559
0,2897,5.06,6.1,4.01,6.03,s09,2840,4026,3185,3119,2550,2658,3533,3179,2948,3653,2830,2862,2511
0,3016,3.01,6.03,2.96,5.96,s09,2817,4106,3330,3251,2537,2703,3784,3296,3053,3833,2911,2933,2581
0,2914,3.08,7.05,6.95,7.06,s09,2720,4007,3198,3113,2474,2557,3690,3205,2957,3703,2809,2863,2525
0,2939,2.99,6.09,2.97,6.06,s09,2869,4049,3231,3128,2522,2609,3579,3221,2964,3706,2775,2881,2558
0,3097,2.92,6.09,1.99,6.12,s09,3170,4158,3387,3522,2575,2842,3863,3336,3111,3868,2880,3087,2703
0,3071,3.17,6.1,4.03,6.04,s09,2835,4153,3330,3270,2605,2591,3494,3379,3069,3833,2943,3044,2752
0,3077,5.04,5.01,4.04,4.96,s09,2882,4149,3332,3267,2539,2663,3582,3368,3100,3856,2938,3079,2715
0,2903,7.91,6.15,6.67,7.63,s10,3103,2825,2902,2681,2282,2772,3618,1918,3108,2856,2252,2535,2820
0,2922,3.55,5.76,6.64,5.12,s10,3060,2745,3040,2682,2304,2701,3372,1984,2869,2667,2159,2468,2622
0,2781,5.86,4.45,5.82,6.01,s10,2944,2600,2884,2536,2203,2622,3481,1850,2831,2589,1933,2217,2537
0,2940,7.01,5.91,6.01,6.86,s10,3083,2826,3014,2730,2299,2773,3616,2001,3019,2805,2237,2527,2764
0,2884,7.24,6.23,8.13,7.9,s10,3063,2824,2937,2673,2255,2743,3509,1995,3009,2774,2172,2462,2724
0,3113,7.1,6.0,6.82,6.85,s10,3279,3011,3116,2892,2456,2968,3715,2082,3281,3017,2369,2698,2959
0,3471,8.96,7.58,4.95,7.09,s10,3694,3396,3468,3321,2869,3365,4065,2388,3693,3444,2719,3139,3365
0,2888,5.68,4.05,6.05,6.22,s10,3048,2723,2880,2603,2203,2675,3889,1954,2995,2743,2140,2388,2683
0,2916,7.56,6.21,7.59,7.27,s10,3104,2832,2972,2704,2301,2757,3626,1913,3068,2832,2227,2493,2783
0,2874,5.94,6.0,6.14,6.23,s10,3048,2725,2978,2660,2149,2689,3372,1961,2952,2721,2117,2413,2650
0,3030,8.99,7.14,7.09,9.0,s10,3170,2914,3078,2807,2342,2850,3583,2044,3128,2907,2277,2573,2833
0,3067,5.37,4.37,3.95,6.65,s10,3234,2978,3083,2846,2402,2917,3748,2047,3201,2969,2362,2658,2888
0,2990,6.72,3.64,4.67,6.08,s10,3086,2793,3041,2700,2391,2757,3622,2020,2959,2733,2195,2501,2682
0,2997,8.81,4.91,5.9,7.97,s10,3142,2854,3016,2740,2453,2831,3485,2081,3038,2813,2237,2533,2771
0,2958,5.31,2.88,3.85,5.04,s10,3036,2747,3085,2727,2226,2701,3524,2008,2889,2668,2072,2468,2632
0,2872,3.85,2.83,2.99,4.09,s10,2971,2699,3054,2674,2196,2666,3424,2035,2824,2617,2106,2388,2591
0,2959,4.95,3.96,4.22,6.17,s10,3088,2804,3123,2755,2385,2795,3635,2033,2982,2756,2058,2396,2688
0,2908,7.31,3.44,5.18,8.12,s10,3012,2782,2974,2663,2361,2704,3524,1987,2911,2692,2181,2435,2670
0,2988,7.82,5.19,6.01,7.82,s10,3142,2837,2991,2697,2341,2771,3581,1968,3082,2842,2245,2524,2802
0,2926,5.58,3.26,3.76,5.77,s10,3042,2715,3055,2699,2218,2648,3353,1983,2826,2636,2087,2434,2604
0,2809,2.97,5.22,2.85,6.0,s10,3020,2747,2966,2610,2199,2634,3497,1908,2941,2683,2110,2395,2657
0,3011,4.24,2.96,4.04,3.35,s10,3100,2825,3092,2753,2389,2756,3559,1970,2940,2767,2172,2493,2667
0,2884,2.87,4.24,3.21,5.44,s10,3005,2756,3113,2717,2379,2715,3480,2046,2793,2614,2046,2395,2575
0,3459,6.82,2.03,6.05,1.73,s10,3644,3373,3544,3329,2864,3352,4121,2415,3621,3386,2706,3095,3330
0,2939,1.92,4.01,3.17,7.18,s10,2990,2724,3093,2706,2170,2663,3365,1973,2818,2636,2049,2375,2543
0,2974,4.95,1.68,5.1,5.96,s10,3101,2779,3098,2724,2323,2738,3628,1993,2897,2731,2136,2496,2649
0,2867,4.94,2.97,5.05,5.1,s10,3011,2715,3057,2678,2271,2679,3407,1957,2868,2652,2028,2382,2611
0,2804,4.31,3.87,4.5,6.29,s10,2897,2616,2865,2503,2081,2549,3530,2018,2801,2554,2041,2297,2523
0,2816,3.94,2.97,5.04,5.47,s10,2964,2677,3014,2616,2166,2623,3386,1901,2791,2606,2005,2269,2531
0,2838,2.64,5.04,3.18,4.99,s10,2948,2662,2992,2643,2048,2617,3468,2024,2855,2619,1969,2223,2566
0,2819,4.15,5.49,3.6,5.53,s10,2957,2698,2984,2631,2405,2717,3261,1983,2816,2600,2028,2276,2569
0,2981,5.96,7.47,9.0,6.44,s10,3161,2909,3005,2787,2429,2847,3721,1994,3122,2884,2327,2551,2801
0,2769,4.94,5.73,5.03,4.88,s10,2917,2603,2890,2501,2009,2542,3287,1939,2814,2553,1970,2310,2533
0,2868,3.91,5.95,5.04,4.1,s10,2997,2736,3011,2656,2272,2718,3340,1995,2918,2684,2088,2339,2654
0,2833,1.38,5.97,5.97,4.1,s10,3008,2675,2973,2606,2134,2601,3504,1976,2855,2606,2034,2331,2565
0,2918,2.17,6.18,4.26,3.01,s10,3042,2717,3025,2641,2151,2641,3466,1987,2852,2641,2078,2431,2599
0,2786,2.92,6.26,4.78,3.04,s10,2938,2590,2774,2472,2117,2556,3465,1892,2867,2600,2068,2311,2573
0,2850,1.91,5.46,2.97,3.23,s10,3028,2716,2958,2621,2141,2679,3442,1960,2947,2669,1996,2276,2614
0,2842,2.17,6.21,6.21,3.87,s10,2976,2671,2948,2577,2134,2575,3350,1916,2798,2600,2058,2334,2542
0,2962,5.78,6.15,7.04,6.44,s10,3121,2885,3098,2804,2249,2805,3619,2027,3043,2815,2152,2454,2766
0,3403,6.27,4.03,7.41,6.5,s11,4238,3422,3069,2616,3138,3781,3334,3670,4043,3350,3597,3891,3395
0,3716,5.67,3.86,6.03,5.63,s11,4441,3769,3435,2932,3461,4072,3559,3939,4255,3626,3876,4146,3738
0,3822,7.41,5.21,7.45,6.27,s11,4425,3890,3534,3068,3520,4074,3839,3986,4262,3709,3957,4168,3795
0,3410,7.65,6.53,8.27,7.06,s11,4278,3485,3124,2641,3200,3826,3337,3713,4069,3374,3652,3931,3450
0,3523,7.41,6.4,7.55,6.68,s11,4304,3537,3197,2739,3242,3862,3475,3729,4101,3447,3729,3995,3513
0,3732,5.32,5.38,5.27,2.78,s11,4442,3847,3455,3158,3496,4073,3671,3955,4280,3689,3939,4165,3760
0,3570,6.37,4.72,5.13,6.22,s11,4345,3604,3262,2945,3293,3909,3511,3784,4169,3478,3750,4028,3559
0,3456,6.26,6.14,7.54,6.1,s11,4336,3533,3172,2674,3224,3854,3400,3732,4118,3422,3707,3965,3494
0,3542,7.04,6.42,8.31,8.32,s11,4290,3573,3236,2983,3237,3845,3484,3740,4094,3438,3711,3990,3514
0,3782,6.53,1.29,8.41,2.36,s11,4457,3845,3472,3105,3515,4056,3755,4007,4286,3737,3983,4169,3757
0,3623,7.32,2.74,6.86,5.19,s11,4360,3698,3339,3048,3345,3941,3489,3861,4188,3546,3858,4068,3604
0,3615,5.04,1.01,7.46,1.37,s11,4412,3642,3274,2892,3309,3937,3497,3835,4172,3518,3780,4056,3602
0,3659,8.42,1.82,6.01,7.69,s11,4419,3728,3357,2965,3423,4003,3573,3902,4211,3660,3901,4105,3671
0,3653,7.96,5.04,7.32,6.03,s11,4413,3695,3322,3054,3372,3963,3473,3865,4231,3559,3844,4084,3627
0,3653,6.92,1.06,5.95,3.04,s11,4425,3688,3343,2887,3385,3987,3637,3926,4234,3594,3889,4126,3647
0,3439,4.35,1.23,4.41,1.79,s11,4212,3468,3123,2840,3175,3802,3390,3698,4036,3393,3696,3942,3443
0,3881,8.32,3.19,6.19,6.19,s11,4548,3921,3570,3154,3611,4160,3885,4055,4361,3803,4045,4275,3887
0,3821,7.95,2.96,8.33,7.08,s11,4452,3892,3545,3278,3575,4110,3676,4035,4298,3783,4046,4225,3829
0,3535,5.54,2.6,6.4,5.06,s11,4294,3562,3232,2990,3258,3874,3368,3750,4093,3428,3691,3975,3546
0,3650,6.0,1.05,5.12,1.0,s11,4373,3681,3342,2915,3381,3990,3601,3885,4173,3575,3854,4082,3650
0,3573,3.27,2.41,1.58,6.31,s11,4345,3606,3250,2948,3309,3918,3500,3827,4155,3529,3819,4045,3555
0,3812,6.15,1.17,6.01,6.4,s11,4442,3823,3490,3130,3545,4059,3619,3986,4274,3745,3976,4185,3790
0,3513,3.72,2.73,6.35,6.95,s11,4335,3545,3196,2841,3261,3854,3336,3784,4121,3507,3784,4017,3502
0,3559,2.88,1.06,6.44,1.33,s11,4366,3577,3235,2766,3291,3888,3513,3803,4153,3465,3731,4025,3565
0,3462,5.01,1.72,6.14,2.53,s11,4297,3526,3154,2731,3240,3858,3358,3757,4114,3428,3702,3979,3484
0,3481,5.49,1.01,5.81,6.18,s11,4307,3480,3137,2742,3205,3816,3499,3704,4114,3422,3718,3980,3440
0,3861,2.28,7.2,1.36,2.9,s11,4443,3906,3580,3130,3556,4078,3824,3987,4272,3722,3981,4170,3807
0,3345,4.26,1.13,4.94,6.78,s11,4210,3350,3002,2603,3085,3710,3165,3593,3987,3296,3561,3848,3315
0,3454,2.32,2.83,2.4,1.55,s11,4265,3471,3135,2792,3181,3813,3436,3689,4063,3414,3706,3969,3450
0,3739,4.58,4.96,3.83,1.0,s11,4376,3808,3426,3104,3442,4012,3643,3910,4217,3657,3914,4120,3697
0,3611,1.83,3.78,2.33,5.01,s11,4351,3645,3300,2881,3353,3950,3445,3850,4171,3571,3856,4076,3629
0,3602,5.01,6.83,6.1,7.1,s11,4313,3616,3258,2858,3308,3919,3528,3808,4159,3534,3798,4032,3574
0,3458,5.64,6.36,5.86,1.24,s11,4298,3526,3166,2759,3217,3825,3351,3731,4084,3376,3676,3946,3488
0,3464,4.88,4.95,4.94,1.24,s11,4258,3461,3119,2705,3178,3798,3262,3668,4047,3360,3639,3908,3420
0,3626,1.23,8.1,4.94,1.05,s11,4354,3655,3307,2838,3365,3957,3597,3875,4168,3536,3818,4060,3623
0,3368,3.62,6.36,5.97,1.42,s11,4243,3417,3075,2581,3118,3767,3405,3640,4015,3299,3592,3879,3387
0,3658,1.47,8.12,2.09,1.24,s11,4365,3747,3343,3096,3375,3943,3493,3832,4184,3548,3819,4090,3631
0,3602,1.35,7.45,1.19,1.22,s11,4363,3700,3316,3038,3346,3947,3533,3815,4149,3554,3811,4051,3624
0,3792,1.0,8.7,1.14,1.01,s11,4360,3847,3466,3098,3457,4005,3735,3911,4202,3651,3894,4103,3713
0,3666,4.95,2.9,3.69,4.96,s11,4366,3754,3361,3091,3340,3928,3491,3819,4178,3535,3834,4043,3604
0,3076,7.09,7.1,7.24,6.82,s12,2730,2932,3243,2562,3348,3586,3863,3025,3146,2973,2568,2917,2753
0,2891,6.09,7.14,5.24,6.15,s12,2615,2656,2974,2444,3116,3297,3828,2773,2950,2769,2515,2796,2642
0,3134,7.33,7.33,7.12,7.92,s12,2699,2954,3316,2579,3384,3630,3946,3052,3187,2990,2597,2970,2788
0,3087,6.86,9.0,6.15,6.22,s12,2689,2925,3224,2564,3329,3569,3852,3009,3114,2972,2553,2895,2756
0,3031,4.01,8.21,2.97,2.82,s12,2749,2924,3316,2529,3413,3684,3854,3077,3195,3022,2589,2925,2779
0,3186,6.65,7.08,6.09,6.03,s12,2766,2966,3282,2661,3391,3641,3929,3075,3179,3028,2604,2983,2818
0,3202,6.77,7.01,6.64,6.97,s12,2782,3008,3333,2660,3431,3669,4008,3089,3231,3048,2651,3032,2862
0,3044,5.1,6.1,3.28,3.81,s12,2759,2871,3202,2551,3320,3586,3813,3030,3116,2961,2553,2879,2756
0,3199,7.95,8.74,8.03,7.79,s12,2805,3050,3374,2674,3462,3707,3975,3123,3255,3096,2645,3013,2852
0,3125,4.06,6.96,3.91,2.76,s12,2713,2972,3295,2580,3422,3658,3872,3075,3189,3030,2612,2953,2788
0,3151,7.78,5.09,7.13,7.27,s12,2783,2998,3347,2614,3466,3744,3898,3117,3245,3080,2638,2999,2816
0,3080,6.86,6.9,4.88,6.04,s12,2748,2956,3316,2566,3407,3674,3938,3086,3209,3028,2608,2954,2789
0,2914,7.99,6.91,8.01,7.95,s12,2606,2682,2969,2374,3068,3294,3699,2743,2904,2755,2451,2740,2609
0,3150,8.15,5.19,8.27,7.85,s12,2778,3024,3323,2660,3435,3662,3912,3084,3217,3042,2634,2971,2844
0,2747,7.08,5.95,6.19,6.29,s12,2553,2462,2836,2244,3002,3227,3654,2685,2830,2640,2410,2625,2511
0,3151,5.04,3.05,3.79,5.96,s12,2787,3004,3315,2609,3401,3674,4010,3091,3211,3047,2580,2984,2781
0,3180,4.86,2.87,5.05,2.94,s12,2728,2985,3280,2650,3370,3627,4039,3050,3187,3024,2559,2971,2802
0,3019,7.35,5.13,7.95,7.82,s12,2653,2849,3158,2550,3258,3511,3891,2931,3086,2950,2517,2856,2732
0,3120,7.03,6.88,6.21,6.94,s12,2741,2947,3258,2581,3364,3598,3936,3051,3157,3010,2553,2944,2782
0,3089,7.35,6.91,7.94,9.0,s12,2667,2904,3192,2576,3288,3526,3940,2975,3113,2972,2552,2913,2699
0,3241,2.13,4.88,1.96,3.88,s12,2856,3077,3414,2722,3506,3756,4000,3163,3259,3124,2676,3012,2893
0,3134,3.33,3.17,3.33,5.19,s12,2800,2991,3351,2594,3428,3727,3858,3115,3229,3069,2641,2998,2844
0,3200,1.74,3.15,2.01,2.09,s12,2864,3076,3347,2671,3421,3657,3871,3091,3206,3086,2744,3051,2836
0,3080,2.79,4.86,3.05,6.01,s12,2685,2879,3178,2534,3289,3518,3921,2975,3095,2955,2582,2900,2734
0,3059,2.78,5.1,2.68,3.04,s12,2743,2932,3277,2550,3388,3645,3869,3066,3177,3028,2602,2922,2778
0,2825,6.08,5.14,5.24,6.36,s12,2594,2548,2908,2331,3066,3285,3608,2752,2912,2752,2481,2711,2585
0,2871,5.05,5.01,6.22,6.23,s12,2621,2624,3000,2417,3148,3382,3797,2810,2951,2794,2505,2782,2654
0,2932,5.04,3.03,2.91,5.99,s12,2680,2721,3070,2452,3208,3428,3730,2884,3003,2866,2561,2840,2682
0,3094,1.67,5.21,1.92,6.21,s12,2714,2908,3210,2594,3316,3549,3877,2979,3110,2945,2569,2896,2753
0,3103,3.36,7.18,7.27,6.22,s12,2680,2946,3244,2602,3347,3591,3863,3007,3137,2984,2553,2930,2753
0,3203,3.18,7.37,3.03,3.18,s12,2795,3040,3347,2673,3439,3718,3949,3124,3237,3069,2635,3020,2842
0,3163,1.86,6.95,2.01,1.03,s12,2747,3009,3313,2618,3376,3656,3836,3072,3204,3032,2560,2958,2787
0,3178,1.9,7.97,1.9,2.04,s12,2812,3050,3420,2595,3514,3774,3885,3159,3272,3110,2654,3032,2842
0,3103,4.87,8.24,1.97,1.0,s12,2762,2978,3339,2574,3449,3697,3806,3106,3197,3045,2597,2959,2807
0,3154,1.22,8.9,2.88,1.0,s12,2785,2996,3371,2627,3431,3713,3914,3122,3239,3079,2620,2976,2837
0,3115,2.82,7.14,3.88,2.94,s12,2749,2994,3320,2612,3425,3668,3895,3116,3188,3036,2607,2953,2803
0,3150,1.0,7.96,1.85,1.18,s12,2796,3058,3355,2638,3465,3708,3926,3134,3232,3072,2658,3025,2838
0,3245,2.85,6.86,3.1,2.23,s12,2876,3094,3380,2715,3496,3736,3919,3155,3279,3110,2690,3061,2916
0,3192,3.18,7.17,2.88,3.17,s12,2778,3033,3343,2659,3439,3689,3974,3092,3221,3048,2625,3008,2830
0,3104,6.81,8.72,6.94,7.08,s12,2773,2979,3322,2552,3451,3715,3882,3097,3217,3050,2620,2955,2788
0,2928,6.15,8.09,5.01,6.08,s13,2826,2097,2274,1933,2395,3067,3491,2709,2343,2780,2610,2892,2857
0,3023,4.03,7.51,8.09,3.58,s13,2941,2248,2318,1942,2385,3116,3777,2777,2480,2863,2679,2989,2925
0,3065,9.0,7.06,5.09,6.96,s13,2997,2174,2405,1894,2437,3207,3686,2667,2570,2972,2730,3033,2994
0,3223,7.08,7.01,6.05,7.01,s13,3197,2395,2580,2000,2506,3349,3650,2728,2751,3114,2880,3192,3190
0,3033,5.01,7.97,8.01,6.03,s13,2980,2173,2379,1939,2423,3145,3594,2710,2501,2918,2707,3017,2966
0,3003,4.46,6.97,7.1,5.0,s13,2919,2151,2350,1963,2492,3137,3697,2792,2446,2861,2696,2976,2923
0,2963,2.99,8.03,8.08,1.0,s13,2887,2091,2299,1912,2398,3090,3457,2795,2404,2834,2652,2947,2906
0,3108,7.99,7.03,7.03,8.12,s13,3003,2358,2428,2043,2454,3210,3629,2792,2574,2942,2754,3058,2985
0,3185,7.06,6.99,6.04,7.08,s13,3117,2287,2524,1930,2476,3302,3906,2708,2668,3058,2812,3142,3134
0,2982,4.01,9.0,7.05,6.04,s13,2900,2135,2284,1909,2374,3115,3462,2748,2393,2832,2702,2955,2919
0,3140,7.04,6.06,4.04,7.05,s13,3087,2238,2508,1947,2459,3258,3722,2754,2663,3030,2807,3141,3075
0,3090,5.08,3.08,6.08,6.01,s13,3023,2546,2422,1927,2384,3190,3652,2682,2546,2941,2748,3069,2992
0,3145,9.0,7.06,4.06,9.0,s13,3081,2292,2507,2032,2546,3262,3624,2744,2632,3027,2800,3122,3092
0,3146,7.97,5.04,6.1,7.99,s13,3079,2281,2492,1934,2478,3245,3748,2762,2624,3021,2818,3114,3082
0,2983,4.94,1.55,7.03,1.97,s13,2925,2149,2335,1871,2420,3108,3739,2732,2449,2876,2659,2987,2919
0,2853,5.0,1.0,1.0,4.1,s13,2734,2070,2178,1917,2271,2956,3259,2702,2260,2675,2541,2793,2757
0,2929,5.99,5.03,3.04,6.01,s13,2864,2102,2299,1927,2400,3078,3471,2700,2403,2801,2633,2923,2887
0,3143,7.94,5.99,3.03,7.06,s13,3105,2328,2514,1975,2491,3279,3588,2722,2639,3041,2804,3118,3097
0,3263,8.51,5.97,6.01,8.51,s13,3228,2850,2639,2110,2539,3378,4175,2750,2777,3148,2902,3255,3195
0,2994,7.6,6.06,4.99,7.03,s13,2932,2145,2316,1923,2389,3113,3575,2731,2417,2837,2662,2976,2923
0,2889,2.0,6.0,1.95,4.04,s13,2751,2123,2227,1963,2375,3006,3636,2730,2339,2712,2591,2843,2809
0,2956,4.01,4.96,2.99,6.05,s13,2878,2178,2301,1973,2404,3094,3448,2752,2411,2810,2671,2948,2906
0,3025,1.0,5.99,1.0,6.95,s13,2927,2209,2328,1979,2458,3116,3636,2769,2473,2836,2710,2959,2922
0,2854,2.97,4.04,1.91,7.09,s13,2759,2050,2242,1854,2303,2973,3636,2699,2309,2722,2549,2817,2785
0,2980,3.97,6.04,5.09,8.01,s13,2875,2245,2315,1986,2431,3095,4000,2662,2464,2853,2658,2964,2878
0,2953,5.04,4.0,7.01,5.99,s13,2885,2105,2305,1917,2365,3088,3540,2731,2410,2840,2648,2957,2901
0,2984,5.47,6.08,2.0,8.53,s13,2914,2099,2320,1882,2409,3102,3587,2770,2434,2851,2672,2978,2917
0,2885,7.08,8.01,4.03,7.1,s13,2760,2094,2210,1943,2366,3014,3649,2711,2296,2697,2588,2833,2775
0,2963,4.04,7.04,1.99,7.59,s13,2878,2074,2251,1937,2333,3066,3399,2744,2367,2803,2664,2933,2899
0,2875,3.05,7.06,1.99,2.92,s13,2778,2044,2225,1851,2318,3017,3620,2682,2321,2723,2555,2854,2795
0,2941,1.97,9.0,1.0,7.06,s13,2806,2163,2272,1957,2448,3057,3361,2767,2377,2758,2654,2888,2847
0,2912,4.05,9.0,6.01,5.99,s13,2807,2115,2259,1887,2408,3055,3782,2776,2360,2763,2622,2894,2845
0,2885,4.55,7.01,8.04,4.42,s13,2781,2075,2225,1934,2339,3034,3642,2708,2296,2760,2585,2852,2816
0,2906,2.92,8.99,9.0,3.04,s13,2852,2084,2303,1960,2388,3043,3511,2658,2388,2791,2632,2914,2863
0,2927,1.0,9.0,1.0,3.03,s13,2849,2085,2270,1898,2377,3051,3556,2752,2352,2777,2619,2911,2854
0,2937,2.54,8.01,9.0,4.08,s13,2866,2077,2275,1894,2350,3097,3531,2750,2376,2803,2631,2916,2872
0,2934,1.0,8.97,1.0,2.08,s13,2866,2069,2287,1857,2393,3068,3447,2738,2404,2807,2626,2926,2890
0,2999,1.0,9.0,1.0,1.0,s13,2889,2205,2318,2028,2440,3138,3380,2817,2448,2847,2709,2973,2910
0,3061,1.97,9.0,1.99,2.01,s13,2962,2975,2455,2277,2363,3130,3624,2755,2544,2878,2731,3090,2939
0,2982,4.08,9.0,7.03,7.08,s13,2846,2170,2306,1993,2477,3104,3631,2763,2452,2816,2677,2925,2875
0,3869,8.22,7.78,4.0,7.42,s14,2743,2538,2159,2696,2594,2341,3855,3283,3084,3249,3286,2518,2845
0,3747,6.05,7.9,5.06,5.01,s14,2578,2360,2089,2547,2459,2160,3652,3134,2955,3161,3151,2381,2724
0,3832,7.5,6.68,7.14,7.58,s14,2718,2454,2095,2680,2559,2246,3815,3224,3049,3268,3239,2444,2856
0,3821,7.38,6.72,6.18,6.94,s14,2637,2413,2111,2590,2491,2135,3600,3251,2978,3182,3213,2455,2757
0,3839,3.99,7.06,7.99,8.03,s14,2504,2393,2084,2488,2473,2086,4061,3264,2983,3057,3219,2405,2718
0,3868,7.19,6.83,6.55,7.67,s14,2741,2478,2183,2699,2556,2280,3885,3249,3064,3286,3266,2478,2847
0,3856,6.85,5.53,6.18,7.62,s14,2680,2458,2101,2608,2496,2250,3610,3278,3054,3207,3258,2471,2848
0,3761,7.0,6.21,7.18,7.96,s14,2521,2352,2099,2490,2459,2165,3679,3227,2938,3102,3159,2362,2673
0,3751,7.69,7.44,8.42,8.92,s14,2594,2381,2062,2556,2407,2174,3694,3150,2939,3120,3175,2434,2704
0,3659,1.88,8.03,7.09,4.05,s14,2420,2265,2068,2399,2408,2091,3550,3131,2868,3020,3067,2295,2590
0,3880,8.03,4.26,5.73,7.85,s14,2581,2420,2104,2532,2493,2191,3526,3337,3008,3097,3244,2417,2773
0,3951,7.63,2.6,5.08,7.01,s14,2694,2524,2121,2671,2541,2204,3703,3387,3098,3203,3328,2510,2878
0,3745,6.79,3.19,3.88,6.85,s14,2527,2368,2091,2501,2425,2135,3552,3179,2926,3086,3139,2376,2682
0,3692,8.03,4.36,7.99,7.99,s14,2448,2315,2107,2420,2368,2129,3673,3135,2885,3008,3087,2356,2612
0,3890,7.08,3.37,5.14,7.17,s14,2745,2479,2104,2696,2586,2247,3880,3330,3095,3285,3312,2498,2862
0,3835,3.96,2.35,3.65,4.51,s14,2479,2397,2047,2439,2387,2129,3712,3303,2953,2943,3189,2387,2721
0,4065,6.06,3.32,6.28,6.04,s14,2747,2599,2177,2716,2653,2279,3855,3533,3174,3237,3448,2611,2981
0,3868,8.09,3.15,5.08,7.53,s14,2586,2453,2057,2532,2480,2103,3634,3324,3021,3064,3250,2477,2794
0,3893,7.55,5.92,6.06,5.23,s14,2743,2471,2118,2691,2543,2191,3769,3245,3075,3284,3296,2474,2870
0,3876,7.33,6.63,3.27,4.65,s14,2612,2496,2141,2577,2500,2271,3740,3265,3028,3112,3269,2527,2792
0,3753,1.03,6.09,1.94,3.78,s14,2398,2299,2028,2361,2318,2032,3423,3172,2868,2920,3117,2359,2604
0,3876,4.1,3.14,3.01,5.01,s14,2613,2452,2105,2578,2496,2230,3594,3298,3042,3139,3264,2459,2793
0,3882,2.41,5.95,2.69,6.96,s14,2592,2444,2114,2512,2478,2140,3374,3354,3013,3006,3250,2467,2792
0,3667,2.36,6.19,2.45,5.71,s14,2439,2351,2118,2423,2397,2164,3522,3106,2875,3003,3076,2364,2623
0,3898,3.87,3.09,3.06,6.36,s14,2554,2488,2089,2519,2488,2087,3521,3375,3020,3047,3280,2469,2795
0,3837,3.28,2.32,4.0,6.77,s14,2560,2442,2102,2515,2466,2181,3636,3279,2987,3100,3219,2420,2756
0,3854,5.81,3.09,3.97,6.74,s14,2571,2448,2125,2534,2505,2139,3562,3324,3008,3104,3246,2470,2781
0,3513,2.53,2.96,2.1,6.0,s14,2277,2172,1987,2231,2259,2013,3286,2961,2709,2856,2909,2206,2434
0,3677,2.92,5.96,3.24,6.53,s14,2397,2324,2043,2396,2325,2157,3780,3089,2859,2955,3071,2381,2622
0,3703,1.1,5.94,3.14,7.04,s14,2430,2331,2095,2426,2398,2123,3457,3152,2899,3016,3096,2352,2629
0,3769,3.26,6.49,6.27,5.82,s14,2525,2385,2116,2481,2433,2127,3422,3213,2963,3045,3169,2419,2723
0,3787,1.99,6.95,7.01,3.4,s14,2634,2491,2180,2576,2485,2248,3760,3211,3000,3149,3191,2505,2770
0,3830,3.18,5.83,3.81,2.9,s14,2538,2388,2067,2510,2437,2106,3557,3267,2966,3067,3191,2407,2733
0,3610,2.5,6.08,2.73,1.09,s14,2362,2261,2075,2354,2336,2164,3433,3047,2802,2914,3009,2311,2553
0,3819,2.68,6.17,3.68,3.49,s14,2576,2429,2126,2511,2444,2181,3567,3275,2970,3060,3208,2437,2751
0,3693,2.01,6.21,6.13,2.01,s14,2468,2336,2060,2418,2379,2125,3427,3105,2886,2992,3077,2345,2619
0,3881,3.47,5.96,4.04,2.4,s14,2602,2465,2115,2550,2452,2189,3568,3307,3015,3080,3245,2467,2796
0,3740,2.26,5.77,3.23,3.13,s14,2505,2335,2055,2462,2404,2070,3593,3170,2915,3025,3118,2387,2691
0,3977,6.65,7.06,7.78,2.78,s14,2758,2566,2159,2701,2639,2267,3762,3425,3131,3242,3372,2600,2920
0,3932,6.68,6.86,6.0,5.23,s14,2689,2499,2153,2601,2554,2188,3571,3365,3075,3157,3308,2539,2833
0,2631,8.9,5.86,7.26,8.04,s15,3126,3027,2517,2857,2619,2775,3729,2696,2757,2392,2981,2873,2555
0,2392,5.04,4.06,5.03,6.09,s15,2824,2103,2429,2294,2487,2734,3884,2560,2531,2414,2648,2763,2556
0,2326,8.04,5.0,7.06,9.0,s15,2777,2107,2449,2262,2404,2720,3719,2504,2438,2406,2443,2701,2510
0,2555,8.04,3.96,6.04,8.04,s15,3075,3120,2388,2796,2566,2700,3907,2620,2552,2351,2833,2799,2497
0,2718,9.0,7.15,9.0,9.0,s15,3269,2612,2698,2711,2857,3018,3983,2987,3037,2634,3126,3055,2789
0,2708,9.0,5.13,8.01,8.95,s15,3244,3168,2544,2980,2728,2833,3979,2778,2859,2480,3076,2954,2612
0,2427,5.04,3.06,5.95,5.01,s15,2969,2791,2441,2490,2480,2738,3627,2565,2475,2407,2590,2753,2541
0,2387,9.0,5.04,9.0,7.05,s15,2850,2087,2466,2362,2538,2834,3686,2573,2536,2470,2607,2809,2591
0,2629,9.0,5.06,6.99,8.03,s15,3148,3075,2534,2966,2663,2820,3953,2739,2992,2522,3213,3144,2619
0,2410,4.99,5.04,7.06,5.95,s15,2882,2491,2569,2776,2482,2836,3753,2538,2485,2517,2504,2818,2634
0,2510,8.99,5.01,7.26,9.0,s15,3060,2844,2517,2776,2636,2803,3647,2659,2727,2532,2832,2892,2605
0,2669,7.08,2.99,6.06,6.13,s15,3208,3196,2636,2986,2664,2950,3648,2697,2668,2567,2889,3007,2690
0,2700,7.06,4.04,6.0,8.05,s15,3235,3112,2671,3004,2731,2945,3833,2803,2881,2624,3064,3136,2737
0,2504,8.15,3.95,7.03,9.0,s15,3036,2344,2584,2516,2665,2861,3869,2735,2755,2516,2798,2923,2653
0,2406,8.12,4.03,9.0,7.05,s15,2965,3020,2345,2588,2408,2605,3742,2524,2431,2263,2581,2661,2425
0,2366,4.17,2.95,4.03,6.06,s15,2870,2751,2435,2690,2428,2779,3655,2516,2453,2407,2507,2756,2530
0,2591,8.1,2.96,7.04,8.12,s15,3101,3081,2503,2847,2593,2813,3779,2639,2593,2455,2814,2879,2588
0,2453,7.04,4.05,6.96,7.05,s15,2972,2814,2464,2959,2468,2724,3586,2494,2475,2385,2601,2761,2507
0,2586,7.04,3.01,6.08,7.0,s15,3081,3095,2479,2740,2510,2767,3577,2582,2506,2386,2615,2781,2553
0,2408,7.97,5.06,7.06,9.0,s15,2919,2315,2479,2510,2546,2835,3670,2640,2597,2447,2557,2827,2581
0,2497,3.09,3.14,3.13,4.1,s15,2933,2517,2709,2703,2449,2964,3405,2538,2535,2669,2356,2894,2745
0,2385,4.12,2.04,4.06,3.96,s15,2859,2027,2632,2447,2432,2909,3383,2540,2520,2578,2314,2824,2660
0,2550,3.05,4.12,2.88,4.03,s15,3033,2759,2643,2996,2546,2931,3832,2595,2705,2602,2671,2939,2692
0,2740,1.92,6.05,2.92,8.01,s15,3201,3154,2894,3046,2625,3115,3674,2649,2700,2831,2625,3050,2894
0,2563,2.96,5.04,2.95,8.0,s15,3024,2813,2722,2944,2528,2986,3595,2592,2671,2667,2594,2942,2782
0,2387,4.96,3.04,2.95,6.0,s15,2869,2427,2575,2460,2386,2852,3559,2523,2490,2540,2340,2800,2645
0,2368,6.0,4.14,5.17,8.06,s15,2757,2038,2389,2274,2513,2785,3609,2517,2472,2387,2547,2772,2550
0,2158,4.01,4.97,4.04,7.04,s15,2578,1911,2350,2107,2242,2592,3413,2397,2331,2279,2324,2570,2380
0,2319,4.05,6.08,4.01,8.0,s15,2731,2017,2382,2243,2344,2687,3467,2479,2419,2336,2344,2703,2489
0,2591,2.04,6.99,4.03,6.95,s15,3043,2847,2743,2660,2510,2965,3612,2585,2625,2664,2577,2909,2780
0,2522,2.99,4.01,3.03,2.95,s15,3087,2939,2608,2776,2562,2904,3531,2580,2587,2577,2609,2898,2669
0,2556,3.97,6.05,3.1,1.0,s15,3046,2657,2845,2865,2636,3075,3494,2644,2644,2820,2589,3012,2865
0,2476,3.01,4.01,4.13,1.0,s15,3028,2466,2590,2846,2631,3004,3951,2751,2952,2546,2702,2975,2665
0,2431,3.01,7.13,2.97,1.0,s15,2861,2081,2688,2536,2535,2987,3606,2582,2555,2662,2516,2894,2748
0,2480,5.05,6.91,5.03,2.1,s15,3020,2773,2808,2879,2539,3034,3645,2599,2600,2754,2450,2957,2830
0,2437,3.96,5.0,4.08,2.03,s15,2946,2826,2500,2653,2501,2780,3818,2551,2492,2457,2618,2804,2567
0,2544,3.04,5.04,1.9,1.0,s15,3030,2691,2696,2838,2629,3003,4023,2681,2675,2673,2726,2992,2774
0,2365,2.08,7.03,1.03,1.0,s15,2896,2553,2645,2678,2494,2890,3608,2559,2546,2584,2493,2864,2677
0,2502,4.0,5.03,2.01,1.0,s15,3022,2772,2634,2936,2558,2952,3705,2658,2618,2606,2635,2920,2691
0,2403,4.01,7.12,1.04,2.12,s15,2893,2700,2492,2681,2472,2739,3862,2520,2528,2417,2598,2788,2521
0,2542,2.51,5.65,2.9,1.97,s16,2539,2812,2024,2110,2952,2878,3274,2550,2023,2149,2263,2397,2294
0,2882,6.45,5.03,5.04,5.54,s16,2884,3189,2134,2442,3317,3263,3932,2874,2537,2387,2762,2602,2601
0,2705,6.74,5.83,6.37,6.83,s16,2769,2963,2001,2233,3114,3066,3715,2710,2438,2163,2666,2590,2356
0,3153,7.09,5.67,2.53,5.65,s16,3136,3415,2276,2704,3570,3535,4291,3101,2853,2538,2962,2795,2793
0,2661,5.51,7.9,9.0,8.14,s16,2753,2924,2032,2281,3069,3021,4102,2652,2522,2173,2544,2474,2335
0,2618,4.99,3.63,5.05,2.78,s16,2754,2846,2034,2199,3014,2956,4018,2619,2204,2149,2448,2469,2333
0,2586,6.83,2.87,6.17,7.14,s16,2609,2876,1948,2060,3017,2968,3609,2556,2151,2071,2401,2344,2309
0,2253,3.51,2.88,7.14,1.5,s16,2452,2516,1888,1991,2665,2581,3299,2271,1983,1981,2130,2215,2077
0,2718,4.18,4.24,4.55,2.96,s16,2724,2975,1991,2175,3143,3091,3657,2677,2128,2132,2512,2427,2363
0,2625,5.14,7.5,9.0,7.01,s16,2642,2891,1993,2187,3050,3007,3759,2613,2331,2127,2526,2385,2318
0,2699,7.27,4.27,5.04,3.15,s16,2811,2888,2051,2175,3073,3006,3548,2617,2239,2173,2382,2615,2340
0,2670,5.97,3.9,4.1,6.01,s16,2762,2912,1987,2234,3070,3002,3442,2614,2144,2109,2441,2497,2334
0,2528,3.88,2.14,1.42,2.54,s16,2683,2803,1988,2147,2960,2893,3572,2544,2159,2095,2436,2481,2259
0,2513,3.64,6.28,2.83,6.96,s16,2733,2769,2005,2172,2930,2855,3924,2503,2039,2119,2318,2520,2222
0,2650,2.67,5.53,1.0,6.05,s16,2740,2912,1959,2198,3074,3006,3597,2658,2326,2157,2543,2509,2304
0,2612,4.97,1.0,5.05,2.76,s16,2624,2838,1933,2050,3008,2953,3276,2574,1923,2049,2350,2445,2236
0,2578,1.21,8.47,1.19,9.0,s16,2712,2787,2031,2235,2967,2908,3648,2549,2290,2114,2500,2587,2265
0,2583,6.56,5.72,5.22,7.37,s16,2633,2823,1989,2085,2933,2878,3585,2523,2010,2131,2322,2355,2287
0,2639,2.86,2.94,3.9,2.4,s16,2740,2843,2062,2378,3024,2921,3679,2563,2557,2179,2529,2546,2326
0,2443,3.82,5.87,7.63,1.87,s16,2652,2707,1986,2130,2861,2785,3654,2469,2195,2070,2290,2471,2198
0,2468,4.42,2.0,6.22,2.62,s16,2479,2727,1964,2008,2869,2808,3266,2487,2007,2104,2286,2303,2190
0,2626,6.79,1.0,5.03,4.36,s16,2667,2840,1959,2149,3032,2968,3368,2637,2084,2128,2600,2597,2258
0,2447,3.9,3.83,2.77,3.54,s16,2552,2703,1921,2066,2864,2778,3268,2468,1975,2036,2282,2345,2151
0,2256,2.51,5.38,1.53,5.99,s16,2343,2504,1972,2042,2663,2524,3480,2312,2054,2061,2223,2192,2134
0,2389,2.47,3.45,2.4,2.13,s16,2405,2700,1959,2114,2821,2761,3471,2460,2180,2099,2332,2198,2197
0,2421,1.82,6.21,3.36,7.56,s16,2548,2695,1993,2260,2775,2730,3600,2411,2459,2094,2391,2380,2194
0,2544,2.59,5.49,2.88,1.83,s16,2711,2751,1991,2128,2908,2848,3295,2512,2234,2037,2476,2572,2225
0,2510,2.85,3.38,3.44,6.69,s16,2647,2708,1968,2102,2851,2809,3348,2450,2135,2046,2312,2482,2194
0,2251,3.23,2.79,3.09,2.62,s16,2520,2516,1908,1917,2638,2562,3351,2267,1894,1960,2116,2178,2076
0,2571,6.1,3.68,3.88,6.05,s16,2720,2786,1980,2104,2951,2876,3345,2513,2281,2060,2337,2625,2253
0,2671,3.88,5.79,5.04,6.19,s16,2770,2885,2033,2260,3051,3013,3653,2670,2420,2137,2660,2565,2292
0,2923,5.01,8.12,4.96,2.86,s16,2971,3169,2081,2382,3350,3303,3865,2877,2433,2303,2682,2575,2542
0,2637,1.0,3.92,4.96,1.0,s16,2722,2831,1993,2158,3005,2955,3411,2592,2124,2123,2364,2586,2264
0,2835,1.0,7.53,1.0,1.0,s16,2818,3040,2033,2229,3214,3147,3492,2780,2121,2177,2515,2487,2410
0,2573,1.0,3.71,4.22,1.82,s16,2581,2813,1950,2059,2998,2952,3227,2622,1961,2087,2270,2487,2239
0,2179,5.05,3.83,6.17,5.88,s16,2407,2425,1898,1934,2567,2474,3301,2254,2003,1990,2095,2186,2062
0,2558,6.09,5.5,6.44,5.83,s16,2648,2869,1936,2131,3009,2970,3462,2574,2115,2075,2411,2374,2263
0,2504,4.27,6.26,7.94,6.53,s16,2594,2804,2014,2222,2937,2881,3442,2508,2329,2133,2441,2477,2288
0,2768,6.13,5.97,8.49,6.0,s16,2782,3039,2054,2326,3202,3142,3786,2780,2474,2225,2617,2416,2435
0,2491,3.74,3.77,4.05,6.19,s16,2575,2751,1922,2055,2896,2850,3478,2519,2119,2041,2296,2415,2190
0,2913,4.05,5.96,5.01,5.04,s17,4001,2251,2485,2262,2222,2998,3804,2812,2916,3380,2389,2238,2856
0,2939,7.26,7.03,5.28,7.31,s17,4262,2317,2711,2425,2317,3114,3700,2897,3056,3560,2686,2338,3091
0,2845,6.46,5.78,5.04,6.04,s17,4184,1992,2624,2334,2195,3013,3624,2784,2968,3490,2620,2175,3024
0,2802,6.35,5.56,5.74,4.04,s17,3848,2057,2340,2100,2081,2847,3489,2675,2744,3211,2276,2100,2696
0,2812,7.05,8.15,6.12,7.35,s17,4190,2410,2673,2405,2272,3012,3285,2762,2967,3454,2586,2296,3010
0,2985,6.9,5.95,5.37,7.14,s17,4163,2386,2634,2355,2248,3127,3578,2908,3076,3528,2698,2378,3004
0,2938,7.08,6.6,5.87,8.13,s17,3963,2307,2432,2206,2179,3003,3664,2827,2891,3360,2437,2354,2800
0,2844,6.05,4.99,5.0,6.03,s17,4182,2238,2587,2311,2154,3030,3633,2802,3042,3460,2542,2173,2971
0,2897,6.04,6.13,5.1,6.24,s17,4167,2104,2576,2265,2148,3020,3814,2817,2966,3462,2488,2170,2983
0,2907,6.09,7.05,5.54,6.06,s17,4212,2139,2609,2325,2199,3052,3554,2850,2998,3504,2540,2169,2992
0,2878,6.03,5.67,5.86,6.1,s17,4279,2149,2778,2447,2332,3087,3325,2825,3080,3562,2728,2306,3151
0,2825,5.96,3.68,5.59,4.96,s17,4278,2042,2742,2409,2321,3062,3830,2777,3027,3562,2657,2210,3137
0,2966,4.54,5.51,5.08,6.47,s17,4303,2328,2777,2441,2346,3183,3606,2928,3157,3638,2703,2359,3171
0,2869,6.58,5.85,5.59,7.32,s17,4265,2311,2770,2555,2359,3091,3411,2826,3055,3585,2747,2370,3134
0,2926,5.96,4.06,5.04,5.99,s17,4313,2072,2739,2462,2365,3142,4017,2862,3104,3603,2716,2298,3135
0,2828,5.92,3.62,5.6,6.28,s17,4295,2116,2777,2498,2257,3083,3480,2803,3076,3609,2766,2288,3159
0,2867,4.12,2.5,5.04,3.83,s17,4331,2180,2819,2516,2324,3106,3695,2834,3124,3634,2749,2230,3188
0,2805,6.22,3.83,5.49,7.69,s17,4114,2036,2555,2292,2177,2977,3372,2745,2963,3403,2464,2154,2949
0,2831,7.27,6.03,5.04,6.1,s17,4222,2071,2665,2369,2294,3043,3743,2795,2997,3505,2673,2311,3066
0,2775,7.03,3.88,5.87,6.27,s17,4089,1938,2501,2233,2138,2945,3471,2719,2893,3387,2437,2086,2899
0,2701,4.0,4.09,5.24,4.21,s17,4183,1938,2617,2319,2254,2966,3467,2683,2949,3442,2544,2027,3035
0,2844,3.19,3.82,5.72,5.69,s17,4353,2115,2824,2491,2314,3104,3441,2822,3119,3669,2772,2261,3211
0,2891,3.62,2.95,5.04,2.92,s17,4332,2204,2787,2459,2296,3128,3453,2847,3101,3632,2708,2241,3189
0,2781,4.53,4.27,4.5,6.06,s17,4232,1960,2691,2389,2266,3018,3374,2763,3011,3532,2618,2116,3097
0,2876,6.18,4.0,5.04,6.47,s17,4239,2061,2649,2342,2249,3068,3730,2834,3054,3530,2574,2224,3053
0,2899,3.73,2.77,5.81,3.73,s17,4336,2211,2846,2573,2392,3143,3559,2867,3119,3649,2785,2287,3225
0,2785,3.96,3.29,5.04,2.62,s17,4255,2053,2698,2386,2279,2997,3395,2732,3020,3530,2589,2147,3091
0,2771,5.64,3.78,5.77,6.04,s17,4057,2159,2457,2201,2115,2923,3603,2707,2905,3343,2396,2118,2850
0,2722,5.54,5.0,5.47,5.9,s17,4260,1958,2687,2361,2258,3010,3451,2727,3021,3518,2597,2114,3096
0,2870,3.04,5.81,4.59,6.08,s17,3937,2216,2402,2147,2066,2958,3630,2754,2872,3315,2310,2194,2755
0,2848,4.54,5.69,4.23,5.63,s17,4159,2205,2650,2359,2218,3004,3481,2769,2966,3453,2592,2264,3000
0,2908,4.04,5.86,5.08,3.94,s17,4166,2289,2606,2304,2241,3060,3502,2853,3010,3470,2510,2252,2974
0,2834,3.83,5.74,5.55,2.86,s17,4170,2155,2578,2287,2239,3029,3774,2769,2966,3459,2491,2127,2978
0,2917,4.99,6.38,4.82,2.88,s17,4244,2216,2731,2394,2323,3114,3659,2867,3043,3559,2658,2299,3092
0,2716,4.17,5.74,5.46,2.35,s17,4049,1900,2451,2195,2130,2882,3457,2647,2854,3325,2387,2070,2848
0,2758,3.37,6.12,5.31,2.15,s17,3930,2026,2451,2168,2155,2846,3302,2622,2821,3241,2318,2134,2817
0,2723,3.46,7.03,5.86,1.0,s17,4096,2002,2569,2277,2204,2903,3337,2638,2858,3379,2498,2045,2967
0,2764,3.6,6.23,5.81,2.4,s17,4190,2125,2682,2495,2273,2984,3236,2713,2971,3490,2586,2122,3060
0,2893,7.1,7.03,5.95,4.01,s17,4068,2233,2514,2293,2181,3005,3570,2804,2961,3401,2421,2201,2886
0,2877,5.04,6.03,5.05,5.72,s17,4064,2222,2510,2281,2184,3000,3514,2792,2919,3373,2800,2392,2888
0,3064,6.33,6.74,5.74,6.26,s18,3012,2550,3107,3479,2420,2876,3725,2638,2831,2710,3214,2711,2793
0,2998,6.87,6.09,6.36,5.67,s18,2962,2503,3066,3409,2364,2867,3942,2637,2774,2628,3174,2702,2733
0,3268,6.36,6.72,6.08,6.32,s18,3174,2799,3095,3714,2644,2900,4063,2692,3026,2925,3194,2757,3019
0,3120,6.65,7.97,6.73,6.78,s18,3061,2592,3003,3527,2457,2783,3548,2509,2867,2783,3118,2599,2874
0,3183,6.13,7.72,7.54,7.59,s18,3074,2674,3007,3598,2573,2798,3814,2584,2936,2876,3093,2644,2935
0,3126,6.51,6.04,5.33,6.05,s18,3029,2591,2953,3526,2493,2749,3462,2543,2866,2788,3103,2541,2872
0,3120,7.33,6.94,6.88,6.28,s18,3049,2683,3096,3542,2475,2870,3695,2649,2870,2777,3205,2711,2877
0,3066,5.0,5.49,5.97,4.59,s18,2986,2564,2792,3488,2450,2604,3383,2613,2828,2744,2925,2375,2860
0,3099,6.55,6.03,5.94,6.56,s18,3013,2621,2925,3527,2440,2692,3537,2435,2833,2757,2999,2563,2858
0,3167,6.09,7.29,7.31,7.73,s18,3081,2667,3038,3595,2534,2838,3458,2588,2922,2827,3146,2649,2918
0,3090,6.24,6.6,6.03,5.47,s18,3024,2576,3079,3521,2434,2859,3696,2591,2829,2741,3202,2686,2843
0,3244,5.55,4.63,5.04,4.13,s18,3134,2962,3027,3671,2608,2749,3558,2568,2971,2912,3068,2807,2973
0,3084,7.33,4.09,4.86,6.15,s18,3038,2583,2975,3497,2466,2776,3569,2522,2853,2767,3098,2598,2848
0,3148,6.62,3.94,6.14,6.09,s18,3078,2778,2981,3532,2548,2717,3858,2497,2910,2795,3057,2645,2883
0,3036,6.04,5.35,5.5,4.77,s18,2967,2531,2856,3446,2390,2605,3479,2389,2812,2736,2991,2383,2800
0,3258,4.38,4.03,5.73,3.67,s18,3167,2790,2928,3702,2627,2710,3605,2501,2999,2933,3039,2555,2994
0,3115,7.74,5.77,7.03,8.51,s18,3092,2618,3058,3525,2473,2812,3639,2614,2891,2775,3149,2641,2869
0,3155,7.05,3.08,5.97,6.64,s18,3087,2720,3052,3568,2529,2852,3624,2647,2918,2818,3160,2677,2915
0,3158,7.04,6.83,6.05,7.29,s18,3101,2643,3000,3584,2519,2779,3839,2525,2930,2849,3104,2601,2938
0,2978,6.24,5.71,5.77,5.99,s18,2924,2454,2797,3366,2398,2653,3544,2595,2711,2651,2964,2374,2753
0,3127,3.92,4.33,4.4,4.29,s18,3050,2641,2755,3558,2518,2576,3438,2475,2875,2849,2895,2361,2887
0,3114,5.69,3.97,5.03,4.12,s18,3032,2622,2932,3517,2501,2700,3455,2531,2874,2791,3066,2527,2886
0,2882,3.71,4.31,4.99,4.31,s18,2823,2396,2709,3310,2338,2563,3238,2548,2646,2575,2860,2272,2689
0,3068,3.22,6.21,2.81,6.35,s18,2999,2555,2793,3421,2509,2594,3154,2491,2843,2741,2885,2418,2863
0,3152,4.23,5.6,5.73,3.69,s18,3065,2674,2848,3564,2554,2618,3175,2451,2903,2829,2948,2433,2935
0,3139,5.44,3.08,5.58,4.05,s18,3079,2636,2949,3524,2512,2734,3695,2503,2894,2803,3086,2568,2890
0,3100,5.94,5.24,5.9,5.36,s18,3044,2622,2852,3512,2496,2618,3592,2420,2864,2793,2963,2417,2882
0,3269,5.95,4.38,5.41,5.94,s18,3182,2945,2984,3725,2680,2773,3750,2719,3019,2954,3056,2705,3028
0,3137,4.9,4.22,4.29,3.92,s18,3063,2649,2860,3550,2514,2627,3546,2469,2888,2812,2975,2440,2915
0,3052,2.96,5.51,3.78,4.46,s18,2961,2573,2729,3506,2479,2560,3422,2545,2824,2765,2834,2301,2859
0,3232,4.44,6.05,6.97,6.4,s18,3130,2717,2834,3643,2608,2556,3390,2335,2978,2914,2882,2382,2995
0,3211,4.62,6.73,6.32,5.91,s18,3118,2903,2948,3633,2599,2708,3703,2702,2955,2882,2984,2614,2967
0,3332,4.56,4.15,6.21,3.13,s18,3221,2974,3024,3766,2702,2793,3469,2589,3092,3007,3064,2808,3071
0,3062,4.15,3.26,6.28,3.22,s18,2984,2578,2723,3481,2530,2568,3174,2539,2832,2787,2829,2331,2871
0,3234,5.12,7.06,6.81,6.03,s18,3158,2918,2999,3655,2636,2734,3669,2687,2987,2934,3059,2671,2984
0,3076,5.24,6.99,7.08,6.05,s18,2999,2567,2806,3483,2481,2585,3162,2422,2845,2768,2916,2375,2866
0,3226,4.0,6.24,6.37,4.05,s18,3111,2723,2897,3673,2608,2692,3671,2465,2970,2907,3001,2499,2990
0,3108,4.51,4.04,5.01,3.01,s18,3029,2615,2837,3515,2533,2657,3470,2603,2863,2800,2955,2391,2887
0,3209,4.06,4.58,5.64,3.99,s18,3108,2704,2912,3632,2573,2727,3675,2452,2956,2902,3024,2542,2964
0,3153,5.0,6.06,6.09,4.99,s18,3060,2682,2807,3580,2567,2621,3212,2591,2893,2847,2907,2401,2928
0,2983,7.44,6.45,5.91,6.95,s19,3036,2372,2084,2607,2747,2575,3699,2483,2359,2526,2354,2520,2187
0,3101,6.46,6.81,5.83,6.29,s19,3126,2525,2175,2793,2826,2631,3798,2504,2430,2545,2432,2598,2244
0,3128,6.82,7.04,6.03,7.31,s19,3180,2543,2159,2708,2764,2694,3889,2537,2481,2537,2464,2542,2148
0,3067,5.77,5.53,4.05,5.74,s19,3073,2383,2137,2701,2796,2608,3641,2515,2411,2544,2376,2573,2206
0,3082,7.79,8.62,7.96,9.0,s19,3118,2449,2143,2713,2866,2625,3789,2513,2425,2605,2375,2593,2230
0,3303,7.73,6.9,5.97,7.71,s19,3339,2871,2324,3091,3009,2773,4034,2724,2623,2753,2629,2903,2367
0,3120,6.64,6.59,5.0,6.83,s19,3109,2659,2165,2940,2825,2572,3812,2595,2413,2542,2387,2686,2221
0,3136,7.44,6.67,6.53,6.94,s19,3159,2654,2253,2841,2807,2665,3673,2613,2469,2592,2416,2633,2276
0,2947,7.09,5.67,5.03,6.87,s19,2973,2444,2112,2601,2690,2545,3597,2393,2344,2445,2402,2546,2154
0,3055,5.01,7.67,6.78,8.01,s19,3184,2498,2136,2675,2853,2666,3738,2508,2429,2623,2423,2581,2174
0,3019,5.83,5.63,5.91,6.19,s19,3117,2500,2157,2689,2814,2663,3535,2528,2438,2516,2416,2505,2167
0,3066,6.26,5.67,3.53,6.21,s19,3144,2618,2206,2885,2885,2667,3733,2533,2426,2577,2440,2640,2272
0,3263,7.53,6.49,5.05,7.56,s19,3184,2527,2249,2787,2862,2685,3982,2683,2567,2624,2476,2696,2300
0,3098,6.76,3.01,2.05,6.13,s19,3226,2765,2240,2809,2828,2637,3587,2513,2486,2573,2487,2576,2170
0,3176,5.68,2.73,2.56,6.42,s19,3176,2468,2195,2754,2878,2672,3827,2614,2508,2633,2453,2635,2253
0,2830,3.24,1.95,2.6,5.5,s19,2979,2310,2038,2516,2613,2572,3350,2335,2324,2417,2321,2412,2104
0,3172,7.38,3.54,3.29,8.77,s19,3226,2598,2232,2676,2813,2747,3836,2592,2553,2596,2508,2584,2196
0,2986,7.77,6.35,5.03,7.53,s19,2977,2369,2119,2611,2685,2593,3701,2491,2349,2437,2291,2509,2188
0,3147,7.65,7.05,6.19,7.96,s19,3114,2633,2209,2881,2808,2558,3711,2575,2395,2555,2418,2656,2262
0,2966,6.13,6.01,4.95,3.29,s19,3116,2400,2115,2618,2755,2715,3827,2483,2419,2588,2429,2496,2220
0,2874,2.19,3.28,3.08,6.13,s19,3085,2415,2124,2552,2761,2584,3880,2446,2418,2546,2366,2470,2184
0,3046,5.04,4.87,5.04,5.26,s19,3164,2548,2158,2662,2828,2734,3683,2549,2501,2624,2496,2533,2221
0,2976,3.77,3.74,2.12,4.51,s19,3106,2425,2113,2519,2752,2612,3596,2359,2402,2545,2390,2425,2136
0,2901,3.23,4.01,5.83,5.41,s19,3018,2678,2182,2826,2649,2530,3723,2449,2370,2441,2340,2457,2201
0,2864,2.19,3.81,3.29,7.54,s19,3035,2381,2031,2526,2746,2625,3667,2436,2348,2499,2302,2416,2135
0,2958,4.95,3.53,2.41,5.41,s19,3016,2253,2046,2490,2681,2573,3628,2430,2329,2410,2303,2350,2116
0,2981,4.97,2.97,5.04,3.51,s19,3071,2434,2150,2680,2808,2613,3716,2515,2384,2547,2394,2543,2249
0,2958,6.21,2.08,2.88,6.96,s19,3139,2522,2120,2735,2947,2689,3647,2525,2447,2699,2416,2636,2255
0,2959,2.82,5.44,4.09,3.74,s19,3136,2595,2140,2760,2880,2673,3501,2523,2406,2620,2404,2608,2194
0,3071,2.85,2.26,3.76,6.58,s19,2976,2364,2125,2568,2542,2593,3792,2558,2390,2299,2332,2364,2079
0,2934,5.03,5.88,4.58,2.74,s19,3037,2338,2090,2581,2727,2548,3459,2426,2382,2509,2346,2429,2167
0,2959,4.96,7.71,6.99,6.74,s19,3097,2444,2115,2680,2897,2667,4208,2530,2428,2644,2474,2622,2235
0,2967,3.4,7.13,6.24,1.44,s19,3040,2548,2118,2773,2744,2546,3578,2437,2354,2473,2355,2491,2157
0,3068,4.17,6.53,5.82,4.88,s19,3076,2461,2139,2679,2741,2699,3911,2538,2433,2525,2376,2560,2203
0,2930,3.21,6.03,6.4,1.0,s19,3008,2509,2088,2695,2650,2494,3591,2399,2331,2377,2282,2394,2112
0,2842,3.71,5.95,5.54,2.96,s19,3020,2346,2022,2507,2789,2542,3421,2340,2331,2511,2324,2451,2119
0,3058,3.15,5.53,5.92,1.0,s19,3115,2656,2211,2831,2758,2587,3649,2492,2430,2512,2457,2613,2206
0,2991,1.62,7.58,5.81,1.0,s19,3028,2390,2108,2616,2686,2550,3757,2423,2382,2512,2368,2469,2193
0,2971,5.04,5.05,5.04,1.0,s19,3030,2333,2127,2532,2690,2580,3709,2451,2360,2454,2341,2382,2154
0,2898,4.24,6.33,6.06,1.83,s19,2979,2382,2112,2578,2633,2481,3542,2418,2344,2443,2384,2456,2179
0,2068,5.76,4.78,3.78,5.31,s20,2755,2258,2463,2208,3002,2885,3562,2358,1753,3135,2446,2770,2679
0,1988,6.77,5.04,3.1,6.81,s20,2865,2348,2367,2313,3112,3031,3614,2451,1714,3226,2595,2905,2816
0,2057,7.18,4.23,5.69,7.37,s20,2848,2304,2601,2274,3095,2994,3451,2525,1624,3229,2542,2877,2757
0,2045,7.05,5.92,5.46,6.91,s20,2806,2279,2410,2290,3034,2958,3578,2423,1721,3150,2534,2832,2735
0,2065,8.82,8.06,7.86,8.32,s20,2939,2432,2581,2421,3152,3068,3661,2523,1716,3265,2675,2948,2878
0,1999,7.62,5.74,3.18,7.79,s20,2760,2222,2432,2246,3036,2979,3483,2434,1766,3156,2504,2849,2735
0,2039,5.27,7.01,5.04,6.24,s20,2764,2238,2566,2215,3049,2925,3420,2432,1668,3173,2486,2847,2710
0,2072,7.63,5.92,7.85,7.68,s20,2917,2369,2624,2378,3139,3049,3443,2588,1731,3268,2641,2931,2841
0,2198,8.22,7.31,5.04,8.1,s20,3066,2532,2705,2530,3255,3162,3678,2630,1803,3381,2757,3053,2943
0,2052,5.13,6.81,4.08,8.06,s20,2948,2407,2530,2403,3180,3070,4067,2532,1760,3286,2670,2957,2874
0,2030,8.18,6.41,7.1,7.37,s20,2835,2273,2534,2289,3058,2986,3461,2491,1662,3190,2540,2870,2747
0,2159,7.64,5.46,6.44,6.36,s20,2947,2460,2651,2438,3186,3082,3608,2639,1809,3308,2692,2984,2892
0,2079,7.91,5.04,7.37,7.72,s20,2919,2372,2584,2374,3137,3060,3746,2551,1708,3275,2611,2961,2836
0,2130,6.4,5.6,4.67,5.81,s20,2843,2313,2663,2282,3056,2961,3609,2541,1703,3228,2554,2866,2748
0,2008,6.35,5.26,4.68,6.29,s20,2788,2249,2517,2261,3044,2938,3676,2461,1780,3170,2502,2832,2699
0,2083,5.03,3.0,2.63,3.71,s20,2812,2240,2587,2238,3029,2928,3543,2415,1752,3180,2495,2813,2700
0,2072,5.04,4.99,5.04,6.68,s20,2869,2359,2556,2307,3110,2986,3608,2507,1746,3243,2563,2881,2764
0,2156,7.35,6.36,3.69,7.22,s20,2981,2423,2746,2407,3180,3069,3895,2624,1795,3335,2678,2956,2831
0,2055,7.59,5.62,6.06,7.63,s20,2915,2376,2459,2346,3146,3051,3604,2494,1690,3263,2632,2930,2835
0,1982,6.65,5.31,5.32,5.96,s20,2689,2185,2388,2177,2990,2850,3567,2372,1721,3106,2434,2770,2675
0,2057,4.97,4.92,5.04,3.03,s20,2665,2199,2520,2202,2963,2850,3575,2408,1777,3061,2383,2753,2602
0,2107,4.06,5.36,3.78,5.95,s20,2826,2300,2595,2278,3054,2963,3414,2500,1724,3205,2511,2845,2742
0,2053,2.82,6.31,2.38,7.81,s20,2722,2213,2540,2213,2986,2916,3344,2443,1758,3126,2442,2801,2640
0,2025,3.0,5.01,2.94,5.54,s20,2754,2240,2464,2212,3022,2931,3353,2446,1711,3136,2490,2807,2679
0,2113,2.99,5.04,5.04,5.04,s20,2757,2218,2561,2224,3018,2916,3917,2467,1788,3139,2459,2792,2659
0,2116,4.31,3.24,2.26,5.04,s20,2860,2326,2546,2313,3098,2997,3810,2482,1796,3234,2569,2902,2778
0,1959,5.03,3.91,4.95,3.96,s20,2638,2134,2328,2131,2942,2856,3496,2336,1711,3041,2394,2725,2619
0,2082,5.01,3.26,5.04,5.88,s20,2810,2306,2584,2263,3027,2950,3614,2462,1727,3154,2530,2844,2711
0,2043,2.44,5.47,2.17,7.19,s20,2704,2221,2362,2123,2945,2858,3671,2341,1735,3042,2415,2716,2637
0,2116,3.49,6.54,2.04,6.29,s20,2871,2320,2747,2285,3103,3003,3495,2543,1670,3269,2544,2894,2745
0,2010,4.46,6.28,2.73,4.46,s20,2772,2253,2413,2242,3052,2934,3819,2415,1691,3158,2494,2834,2750
0,1967,6.28,5.71,4.23,5.55,s20,2696,2201,2361,2175,2974,2862,3357,2371,1699,3080,2441,2769,2651
0,1999,4.64,6.01,5.04,4.08,s20,2635,2158,2348,2131,2938,2868,3495,2346,1731,3003,2395,2731,2612
0,2111,4.74,7.08,4.59,2.62,s20,2768,2252,2668,2208,2991,2929,3299,2502,1727,3153,2442,2788,2642
0,2056,4.35,7.45,5.04,3.18,s20,2738,2225,2541,2204,2968,2917,3409,2455,1722,3122,2433,2803,2649
0,1903,4.29,7.49,3.35,5.44,s20,2594,2070,2309,2074,2921,2812,3545,2294,1734,2998,2356,2730,2577
0,1936,3.01,5.28,3.99,2.47,s20,2599,2151,2293,2127,2937,2854,3527,2283,1695,3004,2341,2718,2593
0,2078,3.38,5.94,4.49,2.97,s20,2837,2289,2575,2265,3067,2945,3407,2489,1737,3204,2530,2839,2730
0,2006,4.67,6.13,3.71,3.47,s20,2669,2154,2461,2180,2953,2858,3405,2368,1710,3076,2367,2753,2616
0,2015,4.94,2.83,4.51,2.28,s20,2547,2127,2369,2108,2880,2832,3439,2378,1728,2946,2327,2692,2552
0,2562,6.42,4.21,6.13,3.55,s21,3068,3389,2652,2776,3649,2215,3770,2627,3020,2637,3585,2979,2043
0,2277,7.05,6.04,4.06,6.03,s21,2844,3108,2422,2504,3389,2109,3394,2548,2773,2460,3303,2753,1868
0,2453,4.83,3.35,4.96,2.73,s21,3002,3275,2599,2671,3580,2209,3633,2629,2925,2603,3491,2911,1985
0,2186,5.05,6.01,5.0,3.03,s21,2784,2944,2275,2346,3253,2035,3212,2446,2647,2299,3195,2674,1815
0,2232,8.09,7.15,8.55,7.01,s21,2824,3018,2289,2443,3262,2004,3482,2460,2728,2317,3264,2725,1825
0,2179,7.92,7.05,6.14,6.86,s21,2762,2873,2272,2303,3216,2081,3408,2579,2633,2302,3120,2703,1800
0,2399,7.05,6.58,7.17,6.54,s21,2941,3205,2516,2603,3486,2204,3602,2619,2861,2519,3417,2865,1921
0,2185,8.81,7.1,7.13,7.94,s21,2778,2919,2297,2355,3232,2068,3482,2539,2644,2319,3153,2727,1827
0,2255,8.56,7.0,8.6,8.03,s21,2819,3036,2401,2439,3362,2097,3344,2543,2727,2421,3272,2757,1832
0,2201,7.05,6.88,8.09,6.49,s21,2826,2917,2260,2383,3230,2108,3304,2552,2671,2299,3175,2753,1820
0,2296,7.05,6.56,9.0,5.97,s21,2873,3086,2391,2473,3318,2137,3550,2552,2712,2400,3237,2802,1876
0,2513,4.63,4.06,3.08,6.13,s21,3014,3336,2564,2741,3608,2125,3398,2513,2983,2570,3562,2907,1985
0,2482,4.27,6.17,4.83,4.71,s21,3004,3285,2590,2703,3577,2172,3754,2599,2954,2590,3535,2918,1974
0,2311,8.1,7.1,6.87,6.94,s21,2860,3051,2386,2465,3348,2059,3207,2509,2749,2403,3286,2735,1844
0,2288,6.92,5.99,6.0,6.1,s21,2847,3011,2353,2434,3299,2060,3789,2553,2726,2365,3251,2740,1836
0,2283,5.99,7.1,7.09,7.01,s21,2827,3080,2369,2445,3371,2053,3278,2412,2741,2390,3315,2753,1868
0,2392,5.53,4.01,5.03,2.91,s21,2919,3192,2506,2606,3496,2101,3573,2574,2874,2523,3406,2854,1951
0,2219,7.99,8.23,8.05,7.51,s21,2802,2961,2324,2417,3278,2050,3435,2553,2704,2364,3231,2725,1797
0,2538,7.26,6.29,7.72,6.78,s21,3055,3343,2633,2750,3611,2245,3659,2632,2980,2631,3557,2967,2032
0,2225,2.33,6.05,2.83,4.06,s21,2772,2969,2306,2394,3263,2038,3324,2494,2708,2318,3215,2704,1827
0,2295,4.08,2.91,2.95,2.24,s21,2820,3093,2398,2472,3371,2057,3659,2485,2738,2403,3298,2742,1864
0,2341,2.09,6.03,4.03,2.58,s21,2856,3141,2394,2539,3409,2039,3355,2485,2799,2406,3370,2744,1870
0,2357,4.69,6.04,4.01,5.99,s21,2883,3164,2466,2556,3449,2121,3675,2519,2796,2458,3382,2760,1902
0,2234,2.99,6.01,2.97,5.55,s21,2807,3008,2320,2415,3293,2029,3423,2503,2703,2346,3248,2719,1835
0,2188,3.97,7.03,3.69,6.0,s21,2798,2921,2258,2322,3203,2041,3702,2536,2623,2275,3126,2691,1772
0,2232,4.06,3.99,1.99,4.04,s21,2810,2950,2334,2411,3311,2081,3405,2541,2676,2376,3191,2724,1804
0,2186,4.01,6.08,3.09,5.99,s21,2771,2907,2232,2322,3208,2000,3589,2468,2634,2269,3157,2642,1795
0,2176,3.04,5.96,4.06,6.03,s21,2743,2906,2264,2351,3231,2025,3446,2471,2645,2310,3146,2634,1778
0,2456,3.01,6.41,6.06,5.88,s21,2950,3292,2552,2689,3543,2114,3392,2515,2923,2557,3491,2858,1969
0,2202,3.45,6.56,3.95,5.63,s21,2765,2966,2257,2373,3230,1983,3314,2406,2658,2278,3188,2677,1784
0,2216,5.04,5.01,7.49,6.01,s21,2768,2968,2288,2384,3253,2043,3383,2472,2674,2320,3201,2666,1828
0,2427,6.27,7.01,8.79,6.99,s21,2894,3240,2522,2629,3527,2121,3494,2522,2858,2538,3451,2789,1969
0,2333,7.03,7.04,9.0,6.56,s21,2846,3140,2390,2521,3401,2016,3431,2449,2800,2405,3348,2757,1878
0,2100,4.06,2.91,2.92,2.04,s21,2660,2779,2131,2189,3106,2055,3349,2427,2513,2171,3018,2582,1758
0,2262,4.92,2.91,5.94,1.0,s21,2742,3024,2325,2432,3307,1999,3359,2421,2688,2333,3258,2659,1829
0,2418,6.88,7.21,8.26,6.49,s21,2908,3257,2529,2628,3510,2127,3626,2535,2879,2518,3491,2822,1949
0,2165,3.04,6.08,1.97,1.94,s21,2752,2873,2247,2321,3195,2023,3374,2447,2608,2274,3131,2627,1771
0,2358,3.03,6.0,7.03,1.15,s21,2881,3132,2436,2553,3421,2084,3518,2512,2808,2455,3355,2782,1875
0,2488,6.09,6.77,7.29,3.18,s21,2966,3305,2581,2710,3569,2153,3365,2529,2929,2577,3539,2875,1976
0,2187,3.99,5.77,6.96,1.94,s21,2734,2939,2232,2340,3218,2001,3541,2400,2632,2254,3171,2630,1831
0,4306,5.05,1.99,5.04,2.99,s22,2957,4156,3756,4093,4173,4159,3557,4088,3582,4145,3288,4018,4191
0,4165,7.08,7.05,6.06,7.12,s22,2823,4028,3665,3955,4041,4039,3657,3983,3540,4026,3218,3903,4094
0,4318,7.05,6.03,4.99,6.0,s22,3148,4225,3951,4159,4229,4204,3645,4194,3808,4203,3405,4145,4276
0,4224,7.06,5.96,6.13,5.95,s22,2857,4081,3709,4000,4105,4075,3743,4022,3568,4068,3254,3965,4137
0,4274,7.1,7.08,7.04,7.04,s22,3064,4153,3828,4090,4173,4161,3791,4120,3690,4133,3400,4070,4205
0,4312,4.97,3.0,5.0,2.97,s22,3026,4206,3892,4132,4214,4208,3814,4166,3741,4178,3332,4104,4230
0,4275,6.03,4.99,5.04,5.04,s22,2968,4161,3833,4101,4152,4160,3814,4103,3697,4133,3330,4035,4192
0,4274,7.09,5.0,6.03,6.94,s22,2960,4128,3739,4033,4154,4127,3731,4079,3561,4113,3268,4010,4193
0,4315,9.0,8.05,9.0,9.0,s22,3115,4195,3899,4144,4195,4184,3916,4138,3827,4163,3641,4098,4222
0,4340,4.0,6.06,6.03,5.0,s22,3393,4240,3967,4182,4236,4226,3853,4218,3844,4211,3592,4149,4278
0,4361,8.05,6.06,6.08,7.05,s22,3076,4244,3957,4186,4265,4236,3715,4209,3787,4237,3359,4145,4267
0,4305,4.99,1.0,4.97,2.97,s22,2996,4174,3894,4123,4191,4175,3701,4147,3741,4149,3314,4060,4229
0,4335,7.01,4.97,6.05,8.03,s22,3248,4210,3889,4148,4217,4189,3707,4179,3736,4204,3485,4113,4253
0,4289,8.05,6.01,6.04,8.0,s22,2983,4147,3756,4073,4161,4137,3554,4117,3595,4127,3261,4043,4207
0,4323,5.0,1.0,5.04,1.94,s22,3050,4194,3891,4149,4206,4185,3715,4148,3709,4183,3345,4093,4254
0,4478,6.06,4.05,6.05,6.04,s22,3423,4365,4094,4293,4379,4352,3603,4333,3927,4333,3559,4262,4404
0,4334,5.04,4.04,5.04,5.0,s22,3121,4213,3934,4171,4219,4219,3882,4184,3844,4206,3595,4135,4260
0,4271,8.08,6.08,7.05,8.06,s22,3149,4167,3854,4113,4169,4160,3825,4136,3750,4158,3498,4061,4196
0,4265,9.0,6.14,6.04,7.99,s22,3158,4162,3867,4090,4174,4161,3832,4122,3774,4149,3531,4048,4193
0,4266,7.08,5.03,4.99,6.04,s22,2962,4153,3829,4088,4150,4138,3693,4101,3678,4139,3308,4041,4194
0,4400,2.97,4.95,6.04,4.04,s22,3153,4273,4005,4218,4291,4257,3605,4248,3826,4258,3353,4191,4321
0,4441,4.05,4.06,5.04,5.01,s22,3292,4301,4009,4249,4299,4287,3649,4256,3865,4297,3478,4196,4350
0,4331,2.99,5.03,3.97,6.04,s22,3214,4243,3935,4156,4238,4209,3641,4191,3781,4207,3441,4142,4278
0,4343,1.96,7.05,4.01,8.04,s22,3149,4232,3983,4181,4244,4215,3490,4186,3840,4227,3376,4120,4266
0,4290,2.95,4.9,2.96,7.05,s22,2961,4151,3828,4106,4171,4152,3449,4122,3616,4164,3227,4074,4220
0,4378,5.0,3.0,5.04,6.03,s22,3141,4257,3969,4213,4269,4252,3722,4216,3816,4228,3402,4157,4300
0,4285,7.06,5.99,6.04,7.05,s22,3067,4180,3918,4131,4185,4170,3644,4152,3751,4169,3326,4119,4234
0,4368,4.03,2.01,5.04,7.01,s22,3121,4247,3945,4174,4273,4247,3748,4223,3793,4225,3331,4144,4303
0,4271,2.0,6.05,4.04,7.06,s22,3095,4157,3895,4120,4165,4142,3626,4113,3743,4157,3294,4088,4209
0,4320,1.0,7.03,3.04,6.99,s22,3175,4211,3930,4162,4228,4204,3815,4181,3767,4180,3340,4125,4243
0,4257,2.01,1.96,2.97,2.92,s22,3010,4162,3862,4089,4161,4149,3647,4122,3677,4157,3240,4059,4208
0,4316,1.99,7.01,4.05,1.0,s22,3050,4208,3889,4130,4198,4188,3697,4168,3734,4188,3330,4100,4251
0,4250,1.96,7.06,2.94,1.0,s22,2918,4127,3751,4064,4149,4115,3450,4087,3596,4117,3201,3996,4179
0,4360,5.04,7.05,7.05,2.01,s22,3097,4235,3918,4195,4265,4241,3830,4219,3746,4233,3336,4138,4293
0,4295,1.99,7.08,4.08,1.0,s22,3109,4199,3910,4130,4197,4162,3482,4156,3724,4151,3258,4082,4227
0,4188,1.96,7.06,7.05,7.04,s22,2960,4080,3721,3999,4088,4059,3693,4027,3578,4077,3304,3976,4132
0,4348,1.0,6.05,2.05,1.0,s22,3316,4244,3964,4176,4264,4244,3783,4210,3803,4234,3495,4139,4298
0,4336,1.0,7.05,1.97,1.0,s22,3075,4234,3966,4177,4232,4240,3784,4228,3808,4227,3379,4136,4275
0,4360,1.0,7.01,4.03,1.0,s22,3278,4262,3983,4204,4276,4234,3785,4227,3840,4259,3510,4154,4300
0,4317,2.97,1.96,5.04,1.03,s22,3158,4198,3874,4138,4197,4180,3847,4157,3728,4177,3446,4086,4242
0,2265,7.71,6.56,7.71,7.74,s23,2844,2846,3199,2677,2311,2097,3468,1892,2464,2101,2586,2563,2382
0,2314,9.0,9.0,9.0,9.0,s23,2894,2884,3262,2729,2339,2121,3763,1932,2566,2194,2735,2695,2477
0,2373,7.09,4.14,7.0,6.79,s23,2932,2895,3388,2613,2399,2075,3947,2040,2530,2258,2749,2985,2544
0,2431,8.21,6.97,8.27,8.42,s23,3048,2943,3250,2782,2377,2104,3883,1930,2603,2174,2771,2781,2400
0,2093,6.94,7.01,7.05,6.01,s23,2545,2705,3158,2630,2329,2083,3554,1872,2425,2052,2509,2466,2315
0,2301,5.09,4.97,4.97,5.97,s23,2791,2881,3225,2867,2549,2300,3627,1998,2741,2218,2779,2747,2410
0,2263,8.94,7.81,7.99,8.99,s23,2825,2868,3260,2734,2345,2136,3799,1939,2564,2177,2730,2722,2427
0,2012,7.23,4.95,7.37,7.83,s23,2382,2581,3099,2654,2272,2014,3598,1791,2205,1967,2166,2137,2288
0,1902,7.03,5.0,7.01,6.04,s23,2289,2357,3138,1898,2315,2024,3717,1819,2131,1821,1712,1745,2260
0,2191,5.01,2.99,5.06,4.03,s23,2819,2824,3196,2700,2398,2106,3631,1955,2556,2130,2671,2606,2402
0,2394,7.0,5.0,7.46,8.1,s23,3032,2979,3278,2745,2350,2172,3879,1978,2590,2214,2733,2777,2459
0,1853,7.0,1.91,7.04,7.0,s23,2223,2311,3107,2309,2270,2059,3608,1788,2121,1798,1775,1846,2196
0,2066,8.01,5.06,7.47,8.01,s23,2377,2573,3151,2509,2388,2123,3781,1851,2202,1903,2081,2080,2317
0,2246,8.01,7.01,7.85,8.01,s23,2775,2867,3073,2801,2298,2053,3828,1828,2605,2107,2700,2643,2300
0,2126,7.0,1.96,7.5,7.37,s23,2565,2688,3301,2724,2430,2092,3759,1947,2462,2102,2415,2481,2446
0,2439,5.15,1.91,5.04,3.77,s23,3096,2954,3304,2723,2339,2047,3594,1987,2621,2293,2807,2996,2465
0,2655,2.86,1.0,3.51,1.06,s23,3389,2961,3444,2307,2383,2172,3794,2064,2551,2307,2820,3098,2540
0,2052,7.12,4.95,8.03,7.05,s23,2542,2668,3087,2601,2263,2017,3745,1777,2279,1875,2310,2312,2266
0,2295,8.15,5.01,7.82,8.09,s23,2921,2910,3291,2712,2362,2130,3485,1971,2517,2156,2661,2655,2469
0,2273,3.96,1.0,4.94,1.91,s23,2878,2874,3259,2736,2359,2114,3859,1981,2648,2176,2799,2719,2420
0,2369,1.91,1.0,7.38,1.0,s23,3056,2963,3302,2885,2412,2084,3661,2013,2657,2191,2791,2756,2471
0,2066,2.97,1.0,5.06,2.03,s23,2474,2682,3104,2656,2376,2043,3857,1822,2292,1899,2191,2169,2264
0,2096,4.17,1.97,5.82,4.05,s23,2476,2683,3089,2667,2388,2102,3802,1828,2394,1996,2365,2337,2328
0,2334,6.53,2.03,6.51,7.94,s23,2946,2804,3201,2576,2288,2028,3566,1844,2334,2161,2621,2771,2365
0,2150,4.97,1.0,3.96,2.1,s23,2767,2775,3110,2640,2277,2037,3792,1841,2525,2077,2738,2617,2273
0,1899,8.27,5.0,8.32,8.12,s23,2293,2456,3156,2431,2333,2038,3226,1809,2195,1826,1936,1991,2278
0,2141,5.06,1.05,5.04,2.88,s23,2516,2588,3133,2375,2417,2122,3821,1897,2331,1986,2308,2367,2299
0,2171,5.04,1.0,5.04,2.03,s23,2572,2783,3104,2774,2335,2075,3581,1915,2591,2085,2599,2507,2325
0,2318,3.72,1.06,7.15,2.96,s23,2865,2974,3399,2816,2449,2119,3959,2069,2669,2225,2754,2701,2528
0,1908,3.88,1.19,4.13,7.42,s23,2303,2375,3253,2468,2382,2014,3778,1859,2260,1889,1786,1945,2379
0,2302,4.86,1.0,4.99,1.87,s23,2910,2901,3211,2781,2416,2147,3560,1983,2642,2162,2678,2665,2434
0,2168,7.97,7.04,8.28,8.06,s23,2669,2742,3233,2757,2367,2095,3975,1928,2460,2042,2464,2477,2402
0,2081,5.04,1.0,4.94,1.85,s23,2734,2586,3156,2500,2298,2057,3717,1865,2387,2003,2319,2329,2339
0,2283,6.72,6.35,6.79,7.91,s23,2864,2852,3195,2773,2298,2054,3609,1921,2448,2136,2667,2742,2362
0,1956,5.18,1.0,5.0,1.95,s23,2458,2459,3095,2210,2296,2022,3531,1766,2140,1838,1996,2057,2234
0,2151,4.92,1.0,5.28,1.86,s23,2527,2722,3198,2554,2426,2090,3568,1890,2417,2000,2421,2501,2338
0,2371,4.31,1.0,4.85,2.03,s23,2953,2901,3245,2678,2297,2106,3474,1965,2518,2213,2706,2769,2422
0,2452,4.97,1.0,6.05,1.77,s23,3106,3004,3340,2892,2389,2134,3741,2074,2795,2264,2864,2855,2500
0,1971,5.0,1.0,7.06,2.01,s23,2364,2463,3312,2507,2381,1980,3619,1933,2275,1921,2020,1978,2441
0,2026,4.88,1.0,3.05,2.04,s23,2520,2641,3100,2689,2301,1992,3451,1784,2183,1898,2160,2109,2302
0,3066,7.06,6.09,8.03,7.04,s24,2764,3274,2496,2914,2868,3258,3556,3640,3343,3195,3741,2782,3458
0,3061,6.04,6.09,6.97,6.01,s24,2803,3328,2499,2907,2909,3281,3823,3683,3375,3244,3783,2803,3492
0,2991,8.96,7.12,8.96,6.05,s24,2773,3219,2512,2846,2819,3146,3856,3637,3396,3143,3636,2744,3352
0,3019,6.05,7.05,6.05,6.97,s24,2736,3222,2490,2860,2846,3215,3745,3600,3376,3178,3724,2775,3380
0,3164,7.06,5.96,7.03,7.03,s24,2855,3415,2516,3002,2967,3391,3702,3709,3431,3310,3893,2987,3555
0,3164,5.96,5.99,5.01,4.04,s24,2867,3411,2615,3019,2996,3391,3913,3837,3525,3352,3880,2938,3579
0,3004,3.04,5.94,5.96,2.0,s24,2722,3244,2512,2874,2862,3219,3832,3642,3359,3185,3715,2764,3418
0,2991,7.03,4.99,6.04,6.01,s24,2703,3200,2445,2855,2792,3179,3749,3574,3330,3119,3662,2717,3370
0,3035,7.08,5.01,8.04,8.05,s24,2878,3367,2560,2898,2862,3221,3826,3709,3423,3227,3724,2856,3434
0,3118,5.01,5.04,6.03,3.97,s24,2801,3336,2525,2956,2931,3295,3513,3663,3415,3283,3808,2868,3488
0,2899,7.03,5.06,7.08,5.95,s24,2685,3121,2460,2762,2785,3090,3635,3554,3256,3046,3554,2672,3278
0,3053,7.04,3.06,7.06,5.04,s24,2784,3248,2509,2901,2863,3255,3814,3644,3408,3171,3731,2815,3421
0,2979,8.0,6.06,6.03,7.04,s24,2746,3201,2497,2820,2832,3172,3605,3588,3331,3150,3634,2765,3353
0,2977,8.05,6.04,7.08,6.01,s24,2748,3201,2524,2824,2849,3181,3711,3637,3365,3134,3673,2769,3378
0,3106,6.0,2.0,6.03,4.09,s24,2790,3301,2516,2935,2877,3290,3887,3695,3421,3214,3761,2820,3460
0,3127,4.0,4.06,5.03,6.01,s24,2856,3379,2462,2946,2911,3332,3685,3667,3392,3258,3847,2928,3521
0,3366,4.08,5.99,4.97,4.03,s24,2943,3596,2652,3119,3085,3584,4026,3945,3642,3508,4088,3051,3748
0,3319,8.96,7.0,7.09,8.0,s24,2933,3494,2606,3059,3060,3501,3880,3840,3640,3386,4027,2981,3651
0,3343,7.03,5.05,7.08,5.0,s24,2913,3644,2593,3133,3090,3622,3853,3944,3602,3518,4120,3068,3807
0,3296,4.03,6.08,7.08,3.0,s24,2905,3516,2601,3101,3083,3519,3835,3808,3562,3424,4035,2994,3679
0,3238,1.96,8.05,8.0,5.94,s24,2915,3460,2550,3057,2994,3455,3646,3755,3487,3400,3987,2994,3657
0,3224,3.03,6.06,4.03,6.91,s24,2884,3489,2584,3056,3044,3447,3791,3778,3529,3393,3975,2972,3647
0,3403,1.0,8.06,1.97,4.14,s24,2980,3619,2571,3197,3133,3644,3805,3907,3639,3543,4144,3086,3802
0,3139,2.99,6.06,2.04,3.0,s24,2841,3348,2544,2979,2952,3320,3603,3685,3435,3291,3852,2844,3537
0,3159,3.12,6.99,4.04,4.97,s24,2866,3357,2581,3004,2981,3334,3735,3676,3479,3273,3861,2879,3522
0,3084,4.05,6.99,4.06,7.08,s24,2915,3329,2504,2899,2900,3263,3902,3654,3445,3198,3779,2861,3452
0,3353,6.08,5.03,7.1,6.14,s24,2960,3551,2608,3157,3073,3574,3954,3872,3669,3444,4055,3005,3718
0,2952,4.03,6.05,4.03,6.0,s24,2778,3207,2437,2820,2814,3153,3636,3505,3255,3126,3641,2804,3344
0,3203,3.97,6.04,4.97,4.05,s24,2846,3415,2495,3015,2958,3418,3922,3741,3485,3348,3916,2917,3591
0,3083,1.0,8.03,3.06,7.99,s24,2757,3264,2481,2938,2906,3259,3859,3635,3388,3208,3771,2845,3464
0,3116,2.94,7.97,2.99,7.03,s24,2797,3329,2505,2933,2932,3327,3594,3690,3408,3269,3840,2842,3494
0,3114,3.0,8.01,4.03,6.03,s24,2785,3345,2516,2920,2915,3317,3669,3682,3399,3256,3808,2828,3496
0,3068,5.01,3.03,5.06,1.97,s24,2739,3279,2495,2932,2901,3252,3541,3608,3316,3226,3753,2804,3469
0,3029,4.05,5.01,4.01,3.03,s24,2799,3255,2557,2971,3000,3217,3326,3600,3342,3213,3720,2829,3442
0,2951,4.05,6.03,5.04,3.97,s24,2750,3154,2531,2860,2870,3089,3473,3484,3241,3089,3574,2750,3306
0,3178,4.0,4.96,2.97,4.01,s24,2854,3335,2554,2994,2946,3367,3696,3670,3445,3285,3869,2856,3554
0,3135,4.0,6.0,4.05,3.08,s24,2868,3354,2535,2958,2912,3342,3759,3702,3429,3272,3835,2877,3539
0,2984,2.03,7.08,1.94,4.05,s24,2703,3215,2475,2845,2846,3165,3557,3566,3273,3160,3649,2763,3380
0,3140,2.12,7.95,3.01,4.09,s24,2809,3354,2518,2986,2948,3342,3578,3679,3367,3295,3820,2893,3534
0,2961,5.0,2.97,4.99,4.04,s24,2705,3165,2508,2835,2832,3131,3711,3564,3319,3117,3638,2734,3354
0,3797,8.06,8.08,7.12,8.1,s25,3641,3170,3609,3135,3340,3370,3672,3604,3693,2015,3394,3517,3451
0,3905,2.99,6.06,7.04,6.03,s25,3747,3267,3739,3248,3379,3481,3591,3724,3792,2047,3525,3562,3586
0,3990,7.12,7.09,6.99,6.94,s25,3847,3405,3837,3362,3477,3587,3831,3823,3906,2094,3648,3704,3709
0,4026,5.0,2.01,8.03,1.9,s25,3857,3394,3847,3372,3572,3638,3765,3865,3927,2088,3659,3685,3740
0,3925,5.04,1.94,5.01,2.04,s25,3813,3302,3756,3277,3521,3517,3725,3755,3823,2049,3578,3623,3637
0,3966,5.0,6.06,8.05,6.04,s25,3825,3387,3814,3330,3505,3540,3872,3803,3887,2128,3582,3785,3683
0,3985,6.08,8.05,8.03,7.01,s25,3861,3389,3833,3347,3517,3606,3893,3851,3905,2145,3647,3746,3698
0,3899,8.04,8.06,8.06,9.0,s25,3792,3357,3721,3248,3428,3490,3862,3714,3773,2132,3569,3700,3578
0,4094,8.09,7.99,8.08,8.03,s25,3920,3523,3883,3437,3595,3670,3922,3890,3979,2202,3711,3805,3755
0,4004,1.0,6.12,7.05,1.12,s25,3877,3449,3845,3406,3514,3631,3726,3851,3924,2107,3662,3748,3750
0,3950,9.0,9.0,6.08,8.1,s25,3811,3300,3774,3284,3491,3538,3707,3786,3841,2073,3577,3650,3635
0,3947,8.04,8.08,6.0,9.0,s25,3780,3367,3736,3294,3432,3496,3799,3759,3846,2117,3548,3768,3617
0,3938,7.97,6.04,7.04,8.12,s25,3786,3307,3774,3300,3487,3530,3706,3803,3827,2104,3575,3654,3655
0,3910,8.09,7.04,6.0,9.0,s25,3756,3298,3710,3230,3445,3458,3652,3716,3791,2062,3492,3641,3557
0,3968,7.01,5.08,6.09,8.08,s25,3809,3411,3800,3299,3462,3548,3983,3798,3848,2118,3604,3777,3660
0,3915,6.05,3.01,7.03,6.04,s25,3779,3185,3762,3265,3514,3547,3609,3740,3808,1993,3562,3417,3618
0,4107,5.04,5.04,5.05,4.94,s25,3954,3571,3925,3481,3615,3669,4081,3921,4007,2244,3718,3940,3800
0,3947,3.04,6.04,6.04,7.14,s25,3825,3301,3790,3324,3538,3590,3742,3810,3866,2079,3606,3642,3671
0,3959,7.06,6.08,6.08,7.1,s25,3813,3299,3784,3296,3477,3565,3591,3794,3871,2059,3593,3546,3657
0,3891,7.08,7.09,8.06,7.04,s25,3758,3326,3715,3242,3440,3476,3833,3712,3792,2127,3534,3674,3571
0,3844,6.03,5.0,5.96,6.12,s25,3691,3170,3681,3167,3437,3439,3703,3647,3719,2039,3479,3493,3520
0,3934,8.03,7.06,8.0,8.06,s25,3788,3332,3749,3270,3456,3509,3807,3772,3823,2140,3561,3707,3636
0,3910,2.01,7.03,8.05,7.14,s25,3794,3234,3760,3272,3506,3524,3688,3753,3808,1998,3538,3500,3619
0,3776,3.05,2.0,7.04,7.99,s25,3629,3221,3573,3124,3283,3313,3802,3568,3683,2017,3386,3584,3449
0,3933,4.96,5.06,7.06,3.05,s25,3795,3302,3750,3289,3470,3494,3720,3758,3818,2065,3562,3561,3636
0,3975,4.99,1.06,8.04,5.04,s25,3850,3374,3829,3367,3550,3610,3950,3845,3901,2068,3646,3718,3718
0,4011,5.03,2.97,7.97,4.92,s25,3866,3444,3854,3381,3544,3606,3845,3849,3915,2153,3659,3775,3736
0,3804,5.01,1.03,6.04,1.0,s25,3667,3154,3646,3167,3377,3415,3475,3634,3702,1937,3432,3408,3500
0,3985,1.0,5.99,4.03,9.0,s25,3837,3304,3804,3347,3511,3592,3693,3808,3858,2082,3643,3560,3678
0,3992,4.03,4.14,5.01,8.03,s25,3853,3370,3813,3361,3508,3580,3828,3833,3876,2077,3632,3714,3689
0,3895,1.01,7.12,3.06,8.03,s25,3782,3241,3728,3257,3411,3508,3553,3740,3800,2037,3511,3475,3609
0,3976,1.0,6.04,9.0,1.0,s25,3860,3357,3814,3332,3559,3597,3779,3806,3880,2113,3640,3620,3690
0,3794,1.94,6.06,8.09,1.04,s25,3630,3237,3597,3125,3292,3330,3758,3580,3675,2030,3392,3668,3448
0,4022,4.95,3.05,7.97,1.97,s25,3880,3375,3844,3382,3577,3627,3805,3866,3918,2082,3682,3652,3738
0,3932,3.03,6.0,6.01,2.09,s25,3783,3310,3752,3272,3437,3510,3586,3754,3809,2074,3578,3547,3630
0,3945,3.0,7.1,4.08,7.1,s25,3807,3296,3783,3299,3501,3532,3614,3757,3832,2051,3593,3579,3648
0,4025,1.0,7.08,9.0,1.0,s25,3892,3405,3848,3384,3543,3631,3727,3875,3925,2109,3662,3689,3732
0,4057,1.0,7.05,8.09,1.0,s25,3942,3528,3897,3416,3645,3687,3771,3908,3955,2110,3701,3720,3770
0,3770,1.0,6.06,8.0,1.0,s25,3640,3169,3574,3111,3291,3324,3733,3562,3646,2009,3354,3536,3435
0,3940,1.0,4.97,8.09,1.0,s25,3820,3291,3788,3306,3481,3546,3609,3778,3847,2047,3569,3526,3677
0,2364,7.97,7.9,6.21,8.86,s26,2354,2179,2147,4072,2410,2344,3725,2330,2193,1870,2659,2721,2562
0,2386,6.96,7.13,6.05,8.13,s26,2385,2252,2197,4097,2469,2426,3642,2368,2401,1958,2701,2780,2602
0,2263,9.0,8.08,7.1,8.96,s26,2175,2077,2076,4086,2339,2347,3605,2138,2085,1804,2415,2548,2404
0,2435,8.03,8.05,6.09,9.0,s26,2243,2081,2197,4069,2487,2398,3444,2412,2198,1878,2732,2848,2699
0,2563,4.0,3.01,5.04,2.01,s26,2308,2067,2295,4155,2560,2419,3784,2633,2279,1891,2947,3038,2851
0,2628,8.09,7.04,7.04,9.0,s26,2544,2455,2444,4317,2693,2637,4314,2620,2589,2147,2940,3027,2789
0,2564,6.08,7.1,7.0,7.08,s26,2332,2126,2296,4160,2580,2394,4020,2564,2256,1880,2885,2985,2825
0,2587,8.01,8.17,7.12,9.0,s26,2434,2316,2379,4252,2648,2600,3786,2581,2393,2021,2899,2986,2789
0,2650,8.05,7.17,6.04,9.0,s26,2453,2219,2358,4220,2632,2537,3990,2679,2437,1980,2979,3075,2882
0,2477,3.08,2.91,2.92,6.06,s26,2344,2141,2250,4156,2526,2452,4015,2480,2259,1902,2755,2875,2686
0,2614,8.04,6.88,5.99,8.96,s26,2382,2130,2308,4253,2567,2462,4214,2621,2291,1911,2921,3015,2825
0,2625,7.04,5.04,5.97,7.04,s26,2452,2259,2373,4235,2647,2530,4245,2638,2395,2009,2947,3036,2851
0,2639,7.12,2.94,6.05,7.1,s26,2478,2334,2397,4261,2695,2583,3827,2641,2510,2073,2979,3066,2813
0,2405,9.0,8.05,7.13,9.0,s26,2262,2116,2136,4078,2398,2335,3419,2304,2155,1851,2649,2739,2583
0,2441,7.01,5.04,4.92,6.12,s26,2269,2141,2208,4122,2499,2377,3515,2431,2185,1886,2715,2831,2676
0,2405,6.19,3.0,6.1,3.12,s26,2132,1951,2094,3895,2382,2357,3797,2452,2094,1760,2739,2806,2641
0,2756,5.04,5.03,5.04,5.14,s26,2624,2476,2572,4310,2830,2692,4175,2791,2621,2187,3136,3242,2993
0,2433,9.0,2.99,6.17,8.99,s26,2198,2032,2146,3996,2458,2264,3337,2411,2136,1862,2736,2845,2669
0,2445,8.0,7.06,6.03,7.96,s26,2382,2353,2261,4176,2533,2470,3688,2442,2355,1968,2779,2871,2706
0,2423,8.08,6.97,7.05,9.0,s26,2262,2119,2212,4114,2541,2430,3710,2475,2229,1917,2766,2894,2701
0,2497,6.06,2.94,5.06,7.22,s26,2298,2118,2302,4073,2566,2466,3832,2578,2377,1967,2901,2994,2792
0,2749,6.97,4.99,6.23,6.88,s26,2521,2247,2443,4249,2764,2534,3988,2808,2443,2017,3114,3200,3021
0,2601,2.28,2.88,3.96,6.13,s26,2332,2194,2387,4150,2701,2569,3818,2715,2427,1979,3070,3144,2947
0,2413,9.0,4.96,6.12,9.0,s26,2243,2091,2215,4082,2579,2448,3347,2422,2162,1892,2654,2781,2640
0,2594,7.14,3.95,5.03,8.15,s26,2365,2214,2325,4131,2620,2502,3862,2644,2319,1969,2925,3011,2827
0,2443,5.05,4.04,5.04,6.0,s26,2272,2158,2190,4033,2484,2378,3684,2391,2281,1914,2714,2784,2666
0,2672,6.0,4.03,5.04,9.0,s26,2402,2127,2377,4231,2683,2489,3645,2743,2347,1937,3053,3171,2964
0,2670,5.97,5.04,3.95,6.09,s26,2380,2133,2342,4258,2607,2524,3919,2780,2303,1896,3089,3174,2969
0,2556,6.09,4.9,6.04,8.97,s26,2330,2132,2274,4138,2572,2406,3574,2573,2256,1852,2891,2970,2798
0,2393,4.95,2.01,2.88,7.1,s26,2169,2035,2135,4008,2402,2355,3721,2446,2092,1780,2735,2833,2663
0,2500,1.97,1.94,3.09,6.97,s26,2254,2067,2227,4093,2496,2379,3953,2515,2157,1861,2818,2914,2739
0,2519,1.96,1.96,4.12,6.97,s26,2318,2082,2200,4107,2492,2398,3842,2523,2253,1842,2851,2930,2768
0,2472,1.0,1.0,3.99,1.0,s26,2395,2247,2245,4180,2524,2493,4059,2443,2274,1920,2751,2843,2658
0,2480,1.0,5.01,3.18,3.01,s26,2303,2130,2244,4126,2553,2462,3526,2466,2240,1924,2770,2883,2693
0,2352,2.97,1.0,3.09,3.96,s26,2260,2188,2037,4014,2333,2317,3794,2225,2153,1805,2554,2614,2476
0,2400,2.92,1.92,2.72,6.01,s26,2176,2021,2145,3922,2413,2274,3516,2415,2149,1798,2762,2834,2683
0,2633,1.0,1.0,2.79,1.0,s26,2426,2243,2276,4247,2547,2477,3776,2582,2293,1934,2915,2972,2810
0,2352,1.15,1.06,2.18,1.0,s26,2242,2158,2115,4080,2355,2351,3598,2277,2103,1822,2569,2681,2531
0,2320,1.95,1.97,3.97,1.04,s26,2163,2028,2060,3984,2329,2249,3787,2231,2060,1788,2536,2631,2522
0,2441,3.06,1.0,4.97,2.05,s26,2291,2132,2171,4111,2432,2401,4024,2390,2142,1833,2682,2783,2614
0,2492,6.03,5.04,9.0,6.0,s27,2329,2595,2209,2016,1963,2034,3568,2361,2335,2237,2447,2648,2192
0,2293,7.0,7.03,9.0,8.1,s27,2119,2356,2075,1947,1879,2003,3248,2192,2255,2147,2134,2450,2041
0,2399,9.0,8.04,9.0,9.0,s27,2241,2440,2101,1946,1876,2112,3794,2300,2326,2174,2215,2526,2058
0,2584,7.05,7.01,9.0,7.08,s27,2287,2609,2201,1929,1875,1966,3684,2385,2440,2292,2435,2696,2183
0,2468,4.97,1.0,9.0,1.0,s27,2347,2660,2246,1969,1941,2022,3419,2439,2378,2307,2444,2715,2234
0,2761,7.0,5.04,8.08,7.96,s27,2542,2765,2386,2031,2002,2151,3885,2512,2600,2464,2580,2865,2377
0,2513,4.94,5.04,9.0,7.03,s27,2372,2622,2255,1971,1910,2171,3657,2523,2455,2326,2430,2794,2260
0,2544,8.24,8.17,8.01,9.0,s27,2437,2808,2288,2003,1869,1965,3804,2518,2456,2323,2528,2739,2237
0,2404,8.99,9.0,9.0,9.0,s27,2216,2523,2145,2019,1910,2009,3539,2288,2314,2222,2255,2510,2121
0,2579,6.01,5.04,7.06,7.03,s27,2493,2855,2367,2087,1917,1972,3443,2587,2470,2382,2576,2730,2311
0,2380,9.0,5.04,9.0,8.05,s27,2163,2403,2108,1853,1880,1935,3533,2218,2308,2201,2350,2556,2119
0,2581,4.18,5.04,8.96,5.04,s27,2386,2640,2259,2063,1994,2091,3716,2433,2421,2295,2492,2721,2251
0,2451,7.01,7.14,9.0,8.03,s27,2335,2629,2207,1946,1863,1985,3384,2404,2421,2281,2487,2716,2178
0,2769,8.06,7.03,9.0,9.0,s27,2547,2829,2384,2147,2007,2096,4176,2596,2560,2413,2604,2743,2346
0,2398,5.04,3.06,9.0,5.04,s27,2235,2387,2125,1987,1948,2052,3563,2270,2323,2206,2381,2587,2108
0,2637,8.06,6.06,8.95,8.03,s27,2531,2886,2360,2105,1870,1951,4030,2599,2516,2367,2630,2755,2316
0,2668,9.0,7.08,9.0,9.0,s27,2450,2739,2297,2044,1943,2083,4059,2494,2506,2361,2554,2732,2293
0,2504,9.0,8.99,9.0,9.0,s27,2299,2704,2216,2022,1862,2091,3644,2382,2405,2229,2369,2613,2159
0,2519,5.06,2.0,9.0,4.04,s27,2200,2422,2118,1982,1923,2042,3799,2190,2297,2199,2266,2558,2095
0,2370,6.97,5.04,9.0,6.06,s27,2110,2286,2064,1959,1932,2057,3230,2137,2319,2185,2149,2469,2065
0,2284,9.0,8.14,9.0,8.12,s27,2173,2447,2084,1952,1794,2037,3147,2286,2243,2124,2207,2390,2028
0,2440,7.29,5.04,9.0,8.08,s27,2426,2620,2301,2123,2016,2206,3831,2608,2432,2339,2490,2748,2303
0,2463,8.0,6.04,9.0,8.03,s27,2328,2568,2162,1931,1827,1930,3803,2285,2363,2201,2376,2589,2118
0,2469,8.9,7.97,8.97,7.99,s27,2277,2661,2202,2094,1933,2073,3362,2364,2371,2242,2329,2531,2137
0,2561,4.0,1.0,9.0,6.04,s27,2298,2555,2201,2011,1978,2069,3460,2347,2403,2243,2471,2742,2199
0,2623,5.04,2.06,9.0,6.08,s27,2505,2860,2413,2110,1979,2055,3697,2594,2352,2354,2545,2716,2299
0,2374,4.97,1.0,9.0,1.0,s27,2204,2418,2186,2042,2013,2109,3474,2327,2293,2245,2419,2550,2181
0,2470,5.04,2.01,9.0,7.06,s27,2349,2617,2245,1984,1906,2009,3356,2398,2440,2269,2478,2725,2213
0,2468,7.18,5.04,9.0,7.03,s27,2302,2697,2229,2065,1906,2084,3561,2415,2354,2244,2355,2554,2187
0,2474,7.08,7.04,8.96,8.0,s27,2341,2740,2219,1976,1830,1954,3653,2405,2415,2234,2482,2669,2152
0,2714,5.08,6.04,8.04,7.09,s27,2477,2656,2274,2040,1954,2095,3408,2367,2410,2329,2403,2634,2234
0,2692,5.04,5.03,9.0,6.0,s27,2463,2739,2308,2133,1958,2056,4048,2459,2514,2364,2558,2717,2293
0,2412,5.04,3.04,8.97,5.04,s27,2260,2492,2181,1922,1925,2003,3571,2322,2338,2269,2439,2663,2175
0,2498,2.85,1.0,9.0,1.12,s27,2238,2477,2171,2011,1942,2080,3290,2268,2312,2232,2288,2517,2127
0,2305,1.0,1.0,5.03,5.04,s27,2177,2414,2112,1973,1857,2068,3497,2249,2279,2197,2165,2455,2083
0,2457,6.13,7.21,9.0,8.1,s27,2321,2580,2239,2020,1903,2108,3905,2406,2377,2287,2323,2599,2213
0,2424,2.99,5.03,7.1,5.13,s27,2220,2534,2157,1921,1854,1938,3498,2328,2348,2243,2390,2714,2162
0,2365,1.0,4.91,6.92,1.0,s27,2350,2550,2236,2025,1964,2170,3624,2489,2319,2259,2358,2588,2220
0,2655,2.14,1.01,9.0,1.97,s27,2507,2700,2380,2169,1998,2122,3912,2501,2482,2441,2617,2718,2325
0,2264,5.04,3.06,9.0,5.04,s27,2103,2314,2056,1942,1887,1995,3433,2109,2216,2156,2133,2402,2020
0,2959,7.03,7.09,8.01,8.01,s28,2473,3009,3872,2966,2275,2642,3589,3221,2322,2323,2671,3043,3362
0,3086,7.99,8.1,8.06,9.0,s28,2771,3117,3953,3060,2187,2675,3593,3291,2305,2547,2886,3203,3424
0,3038,9.0,7.04,7.0,9.0,s28,2413,3094,3986,3088,2201,2671,3599,3313,2288,2357,2753,3148,3475
0,2861,8.08,7.09,6.96,8.08,s28,2261,2889,3820,2923,2172,2552,3399,3143,2244,2246,2522,2979,3285
0,2939,7.04,8.03,8.19,9.0,s28,2412,2982,3880,3005,2211,2606,3422,3213,2313,2309,2657,3070,3354
0,3110,8.15,8.1,8.06,9.0,s28,2834,3241,3996,3108,2223,2735,3840,3364,2350,2334,2825,3148,3520
0,3181,8.09,9.0,7.08,9.0,s28,2763,3239,4048,3179,2279,2844,3771,3458,2432,2528,3042,3337,3594
0,2964,7.01,2.09,2.99,6.01,s28,2520,2973,3882,2971,2145,2580,3451,3188,2266,2375,2682,3040,3330
0,2983,5.04,5.0,5.04,4.99,s28,2620,3103,3925,3016,2164,2623,3404,3261,2268,2287,2685,3051,3383
0,2958,7.99,7.13,8.08,8.08,s28,2453,3014,3886,3017,2124,2612,3486,3213,2245,2306,2640,3053,3368
0,2902,7.01,4.03,6.0,7.03,s28,2357,2921,3840,2945,2180,2555,3565,3146,2239,2270,2577,2995,3280
0,2976,6.06,2.05,5.04,5.99,s28,2664,2997,3870,2981,2161,2593,3837,3178,2242,2488,2806,3084,3319
0,2962,2.09,1.01,2.05,1.9,s28,2459,2998,3887,3007,2188,2591,3452,3211,2273,2311,2642,3053,3358
0,3098,8.03,3.04,7.04,8.97,s28,2791,3213,3973,3094,2233,2700,3610,3341,2374,2350,2772,3144,3482
0,2986,5.04,1.0,3.03,2.01,s28,2429,3011,3932,3034,2173,2633,3636,3242,2294,2344,2704,3078,3399
0,2804,6.91,2.01,5.97,7.97,s28,2292,2809,3767,2854,2082,2434,3206,3051,2187,2234,2457,2926,3181
0,3040,6.99,3.09,7.05,6.97,s28,2516,3066,4008,3066,2205,2664,3727,3287,2353,2393,2751,3158,3434
0,3049,8.08,2.97,5.06,8.0,s28,2552,3126,3942,3074,2198,2677,3679,3321,2317,2339,2756,3093,3446
0,2863,7.03,7.08,7.06,9.0,s28,2339,2901,3818,2918,2123,2526,3360,3135,2284,2269,2559,2974,3278
0,2930,8.04,6.99,5.01,7.99,s28,2358,2965,3877,2982,2209,2624,3423,3210,2294,2285,2632,3052,3350
0,2951,2.01,1.95,3.0,4.95,s28,2523,2967,3853,2954,2089,2551,3458,3177,2227,2371,2736,3076,3310
0,2885,5.03,1.0,5.0,2.05,s28,2477,2896,3801,2883,2107,2474,3309,3097,2189,2352,2608,2995,3254
0,2950,2.03,3.04,1.99,2.01,s28,2551,2958,3884,2983,2123,2547,3700,3180,2280,2416,2658,3070,3320
0,2892,4.04,3.01,3.04,6.0,s28,2358,2919,3857,2978,2216,2574,3611,3154,2295,2294,2591,3061,3296
0,2759,4.06,3.05,6.97,8.09,s28,2249,2762,3710,2823,2148,2426,3358,3023,2156,2231,2405,2862,3137
0,2901,1.99,1.0,1.91,2.0,s28,2496,2990,3842,2935,2100,2516,3498,3158,2210,2253,2557,2993,3291
0,2941,6.08,6.01,6.01,6.94,s28,2454,2979,3841,2983,2222,2607,3460,3185,2286,2302,2600,3036,3335
0,2683,2.9,1.85,3.09,2.0,s28,2216,2654,3618,2751,2130,2409,3521,2955,2154,2234,2344,2814,3087
0,2870,2.06,1.97,2.92,3.0,s28,2395,2857,3792,2927,2234,2534,3592,3105,2280,2312,2557,2984,3250
0,2792,1.99,2.0,2.88,9.0,s28,2252,2745,3723,2840,2121,2428,3470,3035,2163,2282,2410,2903,3161
0,2851,6.91,7.04,7.99,7.06,s28,2289,2873,3814,2930,2154,2515,3543,3112,2238,2244,2486,2962,3260
0,2937,3.05,7.05,8.01,3.03,s28,2603,2912,3855,2924,2214,2561,3307,3138,2243,2466,2709,3056,3279
0,2880,7.01,7.92,9.0,7.06,s28,2473,2891,3810,2897,2167,2467,3628,3111,2190,2371,2556,2965,3265
0,2974,5.99,7.06,7.03,6.0,s28,2691,2943,3853,2934,2196,2577,3373,3140,2205,2520,2801,3068,3275
0,2854,1.08,6.05,8.96,1.0,s28,2293,2852,3804,2909,2145,2491,3668,3101,2214,2268,2519,2977,3248
0,2853,3.08,2.96,1.92,1.88,s28,2290,2877,3789,2920,2115,2513,3737,3101,2211,2277,2506,2959,3260
0,2866,1.01,5.0,8.95,1.0,s28,2326,2919,3834,2939,2175,2564,3609,3149,2235,2261,2584,3011,3292
0,2899,1.96,7.96,9.0,1.0,s28,2293,2936,3845,2957,2121,2563,3629,3167,2238,2239,2577,3013,3306
0,2858,1.04,3.06,2.05,2.06,s28,2239,2859,3793,2913,2088,2499,3394,3113,2220,2249,2479,2989,3259
0,2926,7.1,7.04,7.14,7.97,s28,2378,2975,3872,2970,2137,2613,3589,3175,2233,2279,2642,3018,3327
0,2194,6.06,5.06,6.05,6.04,s29,2414,2493,2416,2874,2165,2539,3278,2177,2548,2220,2283,2621,2436
0,2276,7.05,7.05,7.01,8.1,s29,2426,2710,2460,3001,2137,2444,3361,2080,2615,2288,2321,2678,2434
0,2428,9.0,7.08,8.01,8.08,s29,2486,2763,2520,3058,2245,2527,3594,2196,2719,2422,2268,2825,2419
0,2119,7.17,8.09,8.06,6.99,s29,2153,2475,2441,2905,2152,2492,3202,2113,2550,2203,2296,2642,2472
0,2282,6.05,8.05,8.06,8.0,s29,2338,2622,2365,2892,2070,2425,3365,1995,2488,2180,2258,2537,2431
0,2374,8.03,6.08,7.04,8.06,s29,2539,2874,2612,3119,2245,2577,3738,2178,2762,2414,2379,2787,2566
0,2232,7.04,7.1,8.06,7.12,s29,2358,2507,2500,2912,2165,2506,3339,2166,2673,2300,2258,2704,2413
0,2334,7.04,5.0,6.03,7.05,s29,2366,2681,2416,2987,2076,2484,3393,2036,2538,2247,2323,2646,2489
0,2034,7.06,6.06,7.03,7.08,s29,2123,2451,2446,2927,2104,2489,3348,2063,2529,2199,2287,2609,2489
0,2295,7.01,9.0,9.0,7.95,s29,2430,2527,2596,2992,2196,2503,3389,2178,2744,2385,2307,2787,2463
0,2274,8.03,7.01,7.01,7.01,s29,2422,2814,2480,2952,2203,2459,3397,2171,2639,2305,2333,2687,2414
0,2377,6.04,4.05,5.04,4.08,s29,2487,2818,2489,2978,2205,2460,3556,2163,2640,2330,2299,2697,2445
0,2166,6.06,2.92,3.96,6.08,s29,2214,2365,2428,2884,2306,2471,3312,2233,2580,2294,2251,2717,2348
0,2301,8.06,5.05,8.03,9.0,s29,2449,2744,2505,2999,2176,2513,3329,2143,2651,2303,2330,2721,2474
0,2203,4.01,1.97,3.0,3.29,s29,2388,2705,2538,2977,2244,2607,3467,2221,2630,2306,2391,2687,2565
0,2102,3.0,1.0,2.05,1.91,s29,2260,2614,2472,2984,2121,2565,3254,2114,2479,2169,2367,2574,2574
0,2182,5.08,1.0,2.03,3.0,s29,2177,2440,2483,2946,2210,2506,3427,2178,2623,2308,2272,2750,2451
0,2537,7.01,5.04,6.03,6.09,s29,2517,2732,2502,3028,2339,2591,3271,2245,2598,2337,2416,2673,2587
0,2358,7.05,6.06,5.05,5.99,s29,2553,2904,2506,3075,2253,2529,3358,2151,2706,2398,2374,2718,2478
0,2119,8.03,7.09,9.0,6.97,s29,2126,2433,2469,2933,2198,2500,3281,2176,2576,2279,2307,2687,2438
0,2150,2.92,2.03,8.03,1.0,s29,2290,2553,2362,2882,2137,2457,3177,2072,2432,2138,2294,2491,2455
0,2183,3.05,2.99,3.04,5.04,s29,2270,2476,2425,2989,2217,2489,3267,2144,2539,2272,2278,2660,2442
0,2107,2.05,1.0,2.88,1.92,s29,2173,2395,2412,2858,2300,2478,3252,2214,2473,2203,2311,2586,2454
0,2305,4.12,7.0,7.1,6.05,s29,2377,2628,2532,3096,2381,2580,3292,2282,2670,2387,2431,2762,2575
0,2365,3.03,3.97,4.06,4.0,s29,2485,2783,2458,2988,2267,2529,3469,2180,2578,2271,2385,2599,2537
0,2309,3.0,1.0,2.0,1.0,s29,2467,2738,2455,3009,2197,2551,3401,2166,2555,2251,2355,2639,2528
0,2241,7.09,6.06,8.99,7.94,s29,2386,2677,2487,3016,2225,2525,3307,2147,2618,2299,2330,2703,2499
0,2114,1.04,2.1,2.03,5.01,s29,2350,2493,2338,2802,2106,2470,3070,2083,2437,2139,2212,2512,2386
0,2209,3.97,1.0,4.03,3.04,s29,2326,2665,2539,3020,2275,2616,3299,2239,2622,2267,2484,2685,2615
0,2219,2.95,7.12,2.1,6.04,s29,2405,2664,2461,3068,2129,2536,3239,2056,2563,2249,2349,2622,2516
0,2216,1.0,8.04,2.04,1.0,s29,2360,2610,2403,2929,2161,2437,3454,2120,2547,2213,2247,2606,2414
0,2164,4.04,9.0,7.08,4.01,s29,2370,2675,2403,2881,2087,2413,3457,2053,2552,2187,2268,2597,2392
0,2076,1.99,7.03,1.0,1.0,s29,2207,2520,2469,2978,2082,2504,3344,2079,2568,2252,2428,2676,2491
0,2069,3.95,7.97,3.04,1.0,s29,2160,2405,2420,2882,2145,2495,3303,2143,2525,2196,2249,2613,2440
0,2158,1.92,8.04,1.99,1.0,s29,2254,2508,2408,2924,2136,2456,3504,2091,2540,2224,2273,2641,2429
0,2040,5.03,7.05,8.05,5.04,s29,2170,2517,2402,2900,2097,2489,3416,2071,2480,2175,2284,2584,2462
0,2389,5.01,5.0,7.03,1.0,s29,2330,2559,2420,2927,2146,2415,3448,2131,2561,2237,2202,2615,2378
0,2145,1.88,1.79,1.0,1.0,s29,2254,2588,2391,2881,2144,2432,3333,2095,2515,2202,2224,2630,2420
0,2168,6.05,8.08,9.0,4.95,s29,2290,2663,2399,2902,2092,2388,3305,2051,2523,2185,2222,2567,2397
0,2056,6.01,7.09,8.05,6.05,s29,2159,2418,2453,2854,2085,2420,3363,2103,2602,2187,2216,2654,2408
0,2429,5.04,5.04,5.04,5.04,s30,2614,1843,2348,2536,2343,2487,3493,2618,2490,2973,2813,2578,2494
0,2571,7.15,6.12,4.95,7.94,s30,2685,1823,2423,2652,2436,2612,3506,2752,2502,3094,2958,2580,2577
0,2632,6.15,5.92,5.92,7.01,s30,2707,1801,2454,2692,2653,2677,3630,2790,2431,3185,2991,2448,2610
0,2635,7.04,6.96,6.06,7.09,s30,2726,1846,2496,2667,2494,2672,3714,2821,2568,3174,3024,2598,2641
0,2572,6.19,6.94,5.04,6.08,s30,2672,1816,2471,2631,2433,2632,3477,2763,2572,3123,2956,2621,2594
0,2931,6.22,5.95,6.19,6.01,s30,2935,2061,2690,2950,2857,2905,3670,3034,2729,3347,3251,2819,2818
0,2639,4.05,4.06,4.03,2.96,s30,2721,1790,2538,2730,2494,2653,3485,2826,2754,3159,2985,2839,2641
0,2614,6.05,6.01,6.19,5.94,s30,2717,1950,2477,2750,2725,2670,3487,2781,2584,3127,2972,2604,2592
0,2417,7.08,6.14,4.99,7.0,s30,2526,1741,2262,2472,2290,2452,3415,2570,2364,2923,2795,2519,2416
0,2544,5.08,4.99,9.0,2.97,s30,2677,1899,2449,2588,2363,2538,3313,2704,2506,3071,2906,2575,2546
0,2532,6.06,7.14,5.23,6.08,s30,2664,1800,2468,2593,2428,2613,3570,2748,2532,3088,2920,2576,2597
0,2419,5.15,3.0,5.04,2.01,s30,2588,1847,2332,2481,2290,2501,3451,2637,2467,2979,2806,2531,2528
0,2595,4.04,4.97,3.96,2.95,s30,2734,1869,2483,2691,2549,2650,3499,2775,2562,3123,2979,2655,2612
0,2429,5.04,5.0,5.04,6.14,s30,2614,1813,2367,2547,2348,2522,3566,2635,2526,2960,2824,2603,2519
0,2633,5.01,4.01,5.0,2.79,s30,2763,1828,2638,2762,2565,2682,3611,2887,2821,3181,2991,2874,2728
0,2450,5.04,5.04,5.03,5.04,s30,2594,1754,2593,2619,2351,2551,3655,2829,2910,3038,2825,2969,2627
0,2661,7.13,6.06,5.0,5.03,s30,2734,1847,2541,2700,2489,2662,3649,2849,2705,3187,2999,2752,2681
0,2777,7.05,5.06,7.03,6.97,s30,2911,2065,2732,2806,2528,2727,3533,2940,2930,3209,3032,2957,2796
0,2492,8.27,7.03,5.01,7.19,s30,2610,1794,2409,2556,2399,2560,3506,2750,2560,3044,2894,2589,2541
0,2576,7.26,7.06,7.03,8.12,s30,2710,1852,2437,2635,2467,2632,3458,2764,2539,3107,2963,2602,2588
0,2359,3.05,2.9,3.05,1.0,s30,2566,1824,2323,2503,2218,2394,3310,2564,2513,2864,2740,2615,2469
0,2457,4.05,4.03,4.18,3.06,s30,2621,1859,2465,2589,2333,2497,3480,2774,2763,2990,2827,2796,2543
0,2414,3.0,2.99,3.06,1.03,s30,2619,1819,2398,2559,2318,2502,3451,2671,2586,2972,2812,2650,2539
0,2467,5.99,4.95,6.05,6.08,s30,2632,1893,2417,2625,2468,2562,3775,2681,2533,3033,2870,2575,2539
0,2442,3.92,4.0,3.99,4.0,s30,2613,1865,2427,2617,2439,2523,3465,2678,2575,2968,2821,2665,2577
0,2493,5.01,1.0,5.05,3.18,s30,2673,1788,2479,2652,2351,2518,3447,2724,2716,3017,2881,2834,2570
0,2571,8.01,6.27,6.0,7.12,s30,2696,1810,2509,2682,2461,2571,3423,2771,2770,3050,2916,2782,2578
0,2621,5.06,4.97,3.91,3.12,s30,2771,1833,2692,2821,2464,2648,3588,2906,3017,3112,2951,3127,2734
0,2442,7.23,5.1,5.1,6.05,s30,2585,1688,2334,2487,2294,2488,3428,2610,2344,2972,2826,2452,2495
0,2574,4.04,6.14,4.09,5.99,s30,2691,1858,2435,2624,2428,2603,3420,2724,2555,3101,2952,2631,2579
0,2539,3.86,3.95,5.12,3.97,s30,2649,1790,2462,2652,2416,2545,3260,2767,2748,3029,2891,2808,2523
0,2503,5.01,3.94,7.04,4.03,s30,2612,1811,2373,2576,2408,2543,3306,2689,2456,3007,2861,2588,2505
0,2569,3.91,3.05,4.09,1.0,s30,2693,1840,2436,2653,2539,2614,3589,2771,2506,3125,2955,2602,2594
0,2441,4.99,6.01,4.91,3.05,s30,2615,1794,2421,2578,2378,2542,3421,2668,2578,3014,2879,2677,2524
0,2543,5.04,4.94,5.04,7.15,s30,2637,1809,2398,2586,2387,2572,3439,2697,2516,3067,2895,2567,2561
0,2418,4.03,2.96,6.88,3.0,s30,2547,1688,2312,2501,2282,2453,3525,2601,2406,2954,2818,2502,2432
0,2484,4.13,3.95,2.71,2.03,s30,2618,1830,2341,2567,2473,2560,3357,2615,2375,3018,2876,2498,2500
0,2507,5.04,5.04,5.04,5.04,s30,2635,1819,2454,2637,2382,2526,3373,2757,2703,3013,2863,2732,2529
0,2382,2.97,4.12,5.04,1.0,s30,2538,1794,2334,2498,2329,2486,3515,2585,2445,2948,2794,2538,2469
0,2519,5.05,3.99,9.0,2.04,s30,2650,1748,2434,2579,2392,2572,3378,2717,2435,3044,2905,2523,2560
0,2530,6.79,5.97,8.08,8.09,s31,3091,2568,2420,2498,2274,2313,4103,2288,2326,2269,2667,2824,2652
0,2629,5.03,7.06,3.08,4.03,s31,3237,2614,2455,2538,2254,2338,4107,2278,2319,2249,2720,2967,2759
0,2627,8.04,5.08,7.05,8.09,s31,3265,2755,2472,2597,2189,2259,4165,2240,2327,2181,2767,2997,2810
0,2510,6.97,2.96,5.97,6.99,s31,3163,2593,2446,2489,2281,2351,4120,2290,2239,2277,2679,2869,2679
0,2452,6.22,5.03,6.13,7.08,s31,3080,2427,2411,2423,2238,2287,4060,2226,2191,2228,2597,2847,2630
0,2513,4.99,4.97,6.06,6.1,s31,3116,2456,2448,2493,2277,2366,4003,2304,2229,2277,2629,2851,2663
0,2590,6.05,5.06,5.04,6.29,s31,3245,2620,2464,2529,2214,2269,4085,2263,2267,2221,2727,2948,2725
0,2461,6.03,4.04,6.12,8.01,s31,3054,2385,2418,2345,2209,2309,4013,2283,2269,2239,2563,2811,2643
0,2483,6.06,3.88,6.04,6.96,s31,3114,2563,2442,2489,2291,2338,4050,2288,2357,2247,2655,2844,2632
0,2522,4.01,6.08,1.62,5.03,s31,3215,2575,2440,2514,2245,2333,4193,2219,2231,2225,2698,2928,2675
0,2585,9.0,2.82,8.23,9.0,s31,3257,2672,2493,2593,2283,2332,4158,2303,2373,2269,2753,2980,2748
0,2530,7.14,2.1,2.86,8.03,s31,3111,2568,2449,2474,2268,2306,4154,2281,2296,2224,2615,2838,2679
0,2605,8.09,4.04,8.04,8.09,s31,3157,2603,2479,2543,2325,2375,3953,2323,2444,2254,2698,2932,2702
0,2514,8.06,3.95,8.03,8.08,s31,3158,2606,2414,2503,2241,2298,3998,2239,2227,2229,2668,2912,2689
0,2462,6.05,1.0,8.03,6.13,s31,3065,2357,2448,2435,2335,2393,4060,2337,2260,2280,2590,2845,2623
0,2445,6.09,4.0,2.03,7.05,s31,3112,2444,2449,2419,2249,2273,4134,2238,2289,2244,2586,2840,2603
0,2646,4.94,2.1,5.04,5.95,s31,3216,2689,2536,2569,2387,2368,4164,2411,2403,2319,2770,2979,2808
0,2529,7.06,2.62,6.9,8.12,s31,3070,2458,2404,2418,2260,2326,4146,2332,2265,2233,2604,2802,2688
0,2659,7.95,6.06,6.04,7.01,s31,3257,2644,2491,2549,2257,2306,4150,2246,2405,2223,2723,2979,2743
0,2507,6.9,3.12,7.86,6.0,s31,3161,2565,2395,2470,2253,2322,4002,2253,2292,2221,2679,2870,2673
0,2466,5.09,8.04,8.05,6.09,s31,3034,2374,2403,2349,2269,2305,4022,2277,2266,2239,2537,2748,2557
0,2519,5.04,3.96,5.04,5.99,s31,3133,2557,2471,2495,2340,2366,4094,2313,2280,2301,2702,2863,2697
0,2598,1.0,7.08,8.04,4.09,s31,3294,2685,2473,2581,2240,2302,4214,2290,2291,2220,2763,2984,2763
0,2561,5.0,2.06,7.04,5.99,s31,3166,2541,2441,2528,2299,2325,4053,2291,2278,2242,2661,2889,2707
0,2562,6.14,3.1,7.97,7.06,s31,3144,2608,2489,2555,2342,2378,4168,2381,2328,2324,2670,2857,2714
0,2558,7.08,1.96,4.05,8.04,s31,3140,2489,2491,2498,2370,2377,4069,2344,2350,2324,2630,2893,2721
0,2610,5.0,1.95,5.04,7.17,s31,3238,2628,2467,2546,2282,2351,4129,2287,2289,2232,2726,2949,2699
0,2446,5.01,1.96,7.0,6.97,s31,3051,2530,2406,2507,2284,2348,4048,2273,2283,2246,2592,2776,2576
0,2448,5.09,1.0,8.03,6.09,s31,3006,2369,2418,2422,2315,2372,3884,2333,2304,2278,2541,2743,2617
0,2497,3.13,8.01,1.0,7.06,s31,3088,2447,2419,2388,2267,2302,4074,2233,2225,2247,2589,2793,2639
0,2470,5.0,5.0,3.03,6.92,s31,3108,2507,2437,2453,2285,2323,3943,2274,2241,2276,2634,2852,2617
0,2476,1.0,7.97,1.01,1.04,s31,3117,2650,2394,2444,2256,2294,3912,2204,2205,2191,2581,2820,2635
0,2558,4.18,9.0,2.85,1.88,s31,3236,2651,2418,2498,2242,2296,4262,2284,2347,2215,2739,2937,2731
0,2654,1.95,8.03,2.08,1.0,s31,3292,2657,2493,2620,2277,2358,4255,2291,2322,2243,2754,2981,2777
0,2500,4.03,7.14,1.81,1.0,s31,3141,2605,2405,2461,2299,2349,4087,2269,2306,2278,2692,2865,2661
0,2537,4.97,6.95,1.96,1.96,s31,3101,2681,2436,2492,2294,2394,3912,2275,2247,2261,2574,2846,2659
0,2558,1.0,9.0,1.01,1.0,s31,3215,2567,2448,2467,2253,2325,4148,2269,2274,2230,2653,2923,2705
0,2586,1.0,9.0,1.0,1.0,s31,3246,2725,2413,2479,2226,2314,4303,2275,2217,2195,2653,2944,2688
0,2538,1.0,9.0,1.0,1.01,s31,3174,2594,2412,2503,2236,2275,4037,2246,2225,2177,2659,2886,2684
0,2501,3.99,8.06,2.09,2.03,s31,3107,2485,2390,2394,2227,2291,3964,2243,2240,2215,2604,2838,2634
0,2442,8.13,4.83,9.0,4.87,s32,2863,2730,2057,3024,2676,1909,3535,3315,3317,3910,3027,2470,2137
0,2120,4.99,2.99,7.96,1.01,s32,3044,2834,2075,3106,2876,2109,3741,3414,3396,4031,3114,2613,2291
0,2184,8.05,7.09,8.86,7.08,s32,2966,2686,1994,2969,2797,2056,3706,3301,3250,3865,2954,2517,2258
0,2131,6.96,5.14,9.0,6.14,s32,2684,2489,1903,2813,2487,1977,3518,3103,3075,3657,2831,2297,1984
0,2013,7.15,5.94,9.0,4.81,s32,2983,2809,2110,3141,2766,2032,3599,3442,3438,4005,3134,2604,2175
0,2359,5.78,3.99,7.99,2.28,s32,3143,2842,2122,3191,2898,2078,3821,3494,3490,4065,3205,2654,2346
0,2201,4.94,4.09,9.0,2.09,s32,3124,2880,2123,3239,2928,1950,3817,3545,3530,4074,3287,2693,2318
0,2056,7.96,6.06,8.05,7.15,s32,2911,2552,1950,2858,2703,2055,3750,3187,3125,3803,2884,2456,2213
0,2081,7.86,4.17,8.94,7.04,s32,2963,2645,1960,2910,2701,1978,4042,3189,3181,3787,2923,2515,2255
0,2238,4.08,5.95,8.82,3.9,s32,3141,2875,2121,3168,2904,2077,3697,3469,3455,4032,3183,2672,2326
0,2064,8.24,6.22,8.99,6.88,s32,2833,2799,1950,2809,2625,2159,3641,3079,3078,3686,2817,2360,2131
0,2186,7.31,3.88,9.0,5.33,s32,2778,2529,1921,2869,2620,1977,3564,3168,3117,3756,2864,2338,2088
0,2151,7.09,3.87,9.0,6.99,s32,3064,2688,2011,3003,2740,2025,3850,3260,3267,3856,2998,2594,2308
