,channel_AF3_Betti_0ch,channel_AF3_Betti_1ch,channel_AF3_Betti_2ch,channel_AF3_PL_0ch,channel_AF3_PL_1ch,channel_AF3_PL_2ch,channel_AF3_PE,channel_AF3_PE_2,channel_AF3_PE_3,channel_AF3_PL_G_0ch,channel_AF3_PL_G_1ch,channel_AF3_Betti_G_0ch,channel_AF3_Betti_G_1ch,arousal,valence,dominance,liking,subject,channel_F3_Betti_0ch,channel_F3_Betti_1ch,channel_F3_Betti_2ch,channel_F3_PL_0ch,channel_F3_PL_1ch,channel_F3_PL_2ch,channel_F3_PE,channel_F3_PE_2,channel_F3_PE_3,channel_F3_PL_G_0ch,channel_F3_PL_G_1ch,channel_F3_Betti_G_0ch,channel_F3_Betti_G_1ch,channel_F7_Betti_0ch,channel_F7_Betti_1ch,channel_F7_Betti_2ch,channel_F7_PL_0ch,channel_F7_PL_1ch,channel_F7_PL_2ch,channel_F7_PE,channel_F7_PE_2,channel_F7_PE_3,channel_F7_PL_G_0ch,channel_F7_PL_G_1ch,channel_F7_Betti_G_0ch,channel_F7_Betti_G_1ch,channel_FC5_Betti_0ch,channel_FC5_Betti_1ch,channel_FC5_Betti_2ch,channel_FC5_PL_0ch,channel_FC5_PL_1ch,channel_FC5_PL_2ch,channel_FC5_PE,channel_FC5_PE_2,channel_FC5_PE_3,channel_FC5_PL_G_0ch,channel_FC5_PL_G_1ch,channel_FC5_Betti_G_0ch,channel_FC5_Betti_G_1ch,channel_T7_Betti_0ch,channel_T7_Betti_1ch,channel_T7_Betti_2ch,channel_T7_PL_0ch,channel_T7_PL_1ch,channel_T7_PL_2ch,channel_T7_PE,channel_T7_PE_2,channel_T7_PE_3,channel_T7_PL_G_0ch,channel_T7_PL_G_1ch,channel_T7_Betti_G_0ch,channel_T7_Betti_G_1ch,channel_P7_Betti_0ch,channel_P7_Betti_1ch,channel_P7_Betti_2ch,channel_P7_PL_0ch,channel_P7_PL_1ch,channel_P7_PL_2ch,channel_P7_PE,channel_P7_PE_2,channel_P7_PE_3,channel_P7_PL_G_0ch,channel_P7_PL_G_1ch,channel_P7_Betti_G_0ch,channel_P7_Betti_G_1ch,channel_O1_Betti_0ch,channel_O1_Betti_1ch,channel_O1_Betti_2ch,channel_O1_PL_0ch,channel_O1_PL_1ch,channel_O1_PL_2ch,channel_O1_PE,channel_O1_PE_2,channel_O1_PE_3,channel_O1_PL_G_0ch,channel_O1_PL_G_1ch,channel_O1_Betti_G_0ch,channel_O1_Betti_G_1ch,channel_O2_Betti_0ch,channel_O2_Betti_1ch,channel_O2_Betti_2ch,channel_O2_PL_0ch,channel_O2_PL_1ch,channel_O2_PL_2ch,channel_O2_PE,channel_O2_PE_2,channel_O2_PE_3,channel_O2_PL_G_0ch,channel_O2_PL_G_1ch,channel_O2_Betti_G_0ch,channel_O2_Betti_G_1ch,channel_P8_Betti_0ch,channel_P8_Betti_1ch,channel_P8_Betti_2ch,channel_P8_PL_0ch,channel_P8_PL_1ch,channel_P8_PL_2ch,channel_P8_PE,channel_P8_PE_2,channel_P8_PE_3,channel_P8_PL_G_0ch,channel_P8_PL_G_1ch,channel_P8_Betti_G_0ch,channel_P8_Betti_G_1ch,channel_T8_Betti_0ch,channel_T8_Betti_1ch,channel_T8_Betti_2ch,channel_T8_PL_0ch,channel_T8_PL_1ch,channel_T8_PL_2ch,channel_T8_PE,channel_T8_PE_2,channel_T8_PE_3,channel_T8_PL_G_0ch,channel_T8_PL_G_1ch,channel_T8_Betti_G_0ch,channel_T8_Betti_G_1ch,channel_FC6_Betti_0ch,channel_FC6_Betti_1ch,channel_FC6_Betti_2ch,channel_FC6_PL_0ch,channel_FC6_PL_1ch,channel_FC6_PL_2ch,channel_FC6_PE,channel_FC6_PE_2,channel_FC6_PE_3,channel_FC6_PL_G_0ch,channel_FC6_PL_G_1ch,channel_FC6_Betti_G_0ch,channel_FC6_Betti_G_1ch,channel_F8_Betti_0ch,channel_F8_Betti_1ch,channel_F8_Betti_2ch,channel_F8_PL_0ch,channel_F8_PL_1ch,channel_F8_PL_2ch,channel_F8_PE,channel_F8_PE_2,channel_F8_PE_3,channel_F8_PL_G_0ch,channel_F8_PL_G_1ch,channel_F8_Betti_G_0ch,channel_F8_Betti_G_1ch,channel_F4_Betti_0ch,channel_F4_Betti_1ch,channel_F4_Betti_2ch,channel_F4_PL_0ch,channel_F4_PL_1ch,channel_F4_PL_2ch,channel_F4_PE,channel_F4_PE_2,channel_F4_PE_3,channel_F4_PL_G_0ch,channel_F4_PL_G_1ch,channel_F4_Betti_G_0ch,channel_F4_Betti_G_1ch,channel_AF4_Betti_0ch,channel_AF4_Betti_1ch,channel_AF4_Betti_2ch,channel_AF4_PL_0ch,channel_AF4_PL_1ch,channel_AF4_PL_2ch,channel_AF4_PE,channel_AF4_PE_2,channel_AF4_PE_3,channel_AF4_PL_G_0ch,channel_AF4_PL_G_1ch,channel_AF4_Betti_G_0ch,channel_AF4_Betti_G_1ch
0,0,0,0,49,0,0,3.641854601672484,-1.0,-1.0,49,0,1,0,7.71,7.6,6.9,7.83,s01,0,1,0,49,70,0,3.9564959184774158,0.5592636074439905,-1.0,49,49,2,2,0,1,0,49,49,0,3.9202723103933255,0.45566582767391545,-1.0,49,49,2,2,0,0,0,49,49,0,3.7944985514211806,0.0,-1.0,49,49,2,2,0,1,0,49,82,0,3.8776076089396394,1.8018978867973459,-1.0,49,49,2,2,0,1,0,49,15,0,3.886297251579198,1.7478942375970081,-1.0,49,49,2,2,0,1,0,49,82,0,3.8334264101092828,1.339955848352104,-1.0,49,49,2,2,0,1,0,50,95,0,3.8759102570692,0.26237764540991365,-1.0,49,49,2,2,0,1,0,49,35,0,3.882107827132061,0.3776571962933428,-1.0,49,49,2,2,0,1,0,49,66,0,3.947839544080181,0.9770868116225419,-1.0,49,49,2,2,0,1,0,49,7,0,3.899083547109665,1.5116936260822094,-1.0,49,49,2,2,0,1,0,49,18,0,3.916329265283644,1.5119675999206246,-1.0,49,49,2,2,0,1,0,50,65,0,3.9379784680030774,0.2241205675430938,-1.0,49,49,2,2,0,0,0,49,49,0,3.6516772231458456,0.0,-1.0,49,49,2,2
0,0,1,0,49,88,0,3.9624632307934538,1.431327955711017,-1.0,49,49,2,2,8.1,7.31,7.28,8.47,s01,0,1,0,50,54,0,3.8610329586587455,0.7691625831394859,-1.0,49,49,2,2,0,1,0,50,74,0,3.6890784516349147,1.3185026679481482,-1.0,49,49,2,2,0,1,0,49,34,0,3.900819630583101,1.6641320646744795,-1.0,49,49,2,2,0,1,0,49,9,49,3.8385930603634506,0.34813847419532384,0.0,49,0,1,0,0,0,0,49,49,0,3.786715455268089,0.0,-1.0,49,49,2,2,0,1,0,50,30,0,3.937268536756652,1.5160134188550456,-1.0,49,49,2,2,0,1,0,50,66,0,3.8961767589484286,1.5326384380381948,-1.0,49,49,2,2,0,0,0,50,49,0,3.7849073154734216,0.0,-1.0,49,49,2,2,0,1,0,50,86,0,3.927191988145631,0.7976946531085524,-1.0,49,49,2,2,0,0,0,50,49,0,3.895985606831499,0.0,-1.0,49,49,2,2,0,1,0,49,66,0,3.921067953335639,0.9894529149422072,-1.0,49,49,2,2,0,0,0,49,49,0,3.896814415539396,0.0,-1.0,49,49,2,2,0,1,0,49,52,0,3.9836894067538844,0.3863279239954024,-1.0,49,49,2,2
0,0,1,0,49,74,0,3.7706177980722613,0.8800061766035973,-1.0,49,49,2,2,8.58,7.54,9.0,7.08,s01,0,0,0,49,49,0,3.911867470923049,0.0,-1.0,49,49,2,2,0,1,0,49,26,0,3.908908911199958,1.5024425108215882,-1.0,49,49,2,2,0,1,0,50,27,0,3.815088755287422,1.242381860807981,-1.0,49,49,2,2,0,1,0,49,49,0,3.9040342200814773,0.6574796790899459,-1.0,49,49,2,2,0,1,0,49,36,0,3.8523253326193743,1.431327914753592,-1.0,49,49,2,2,0,0,0,50,0,0,3.8134385949051297,-1.0,-1.0,49,0,1,0,0,1,0,49,66,0,3.8584029480119724,0.6271727702203158,-1.0,49,49,2,2,0,1,0,50,77,49,3.8600198131261894,2.2929602868756565,0.0,49,0,1,0,0,1,0,50,69,0,3.878425718199284,0.7944455894320893,-1.0,49,49,2,2,0,0,0,50,49,0,3.7802416694493863,0.0,-1.0,49,49,2,2,0,1,0,49,82,0,3.8556909966242885,1.287880919232947,-1.0,49,49,2,2,0,0,0,49,49,0,3.7553147342912347,0.0,-1.0,49,49,2,2,0,1,0,50,25,0,3.5928850110480073,1.1011054085130545,-1.0,49,49,2,2
0,0,1,0,50,27,49,3.9302352033386088,0.9683506208398361,0.0,49,0,1,0,4.94,6.01,6.12,8.06,s01,0,0,0,49,0,0,3.882300882390129,-1.0,-1.0,49,0,1,0,0,1,0,49,29,0,3.9619888995337007,1.311672585994923,-1.0,49,49,2,2,0,1,0,49,83,0,3.869088677140531,1.8563547952918307,-1.0,49,49,2,2,0,0,0,49,49,0,3.83859832874746,0.0,-1.0,49,49,2,2,0,1,0,50,16,49,3.7829505843513553,0.8926688725693985,0.0,49,0,1,0,0,1,0,49,21,0,3.902967108620042,1.6891915883189335,-1.0,49,49,2,2,0,1,0,49,42,0,3.64719163164587,0.7364022315122137,-1.0,49,49,2,2,0,1,0,49,62,0,3.7603623123041245,2.084874914175873,-1.0,49,49,2,2,0,1,0,49,61,0,3.85298210185162,0.7251752512198516,-1.0,49,49,2,2,0,0,0,50,49,0,3.664192550985596,0.0,-1.0,49,49,2,2,0,1,0,49,83,0,3.919847246299758,2.381266139755136,-1.0,49,49,2,2,0,1,0,49,89,0,3.8454523874103668,0.7875177007016371,-1.0,49,49,2,2,0,0,0,49,0,0,3.7109126858442134,-1.0,-1.0,49,0,1,0
0,0,1,0,49,49,0,3.8830052040963965,0.6216696861253219,-1.0,49,49,2,2,6.96,3.92,7.19,6.05,s01,0,1,0,49,81,49,3.7929412342958857,0.8399384020243505,0.0,49,0,1,0,0,1,0,49,67,0,3.958923048477165,0.8457509694021974,-1.0,49,49,2,2,0,0,0,49,49,0,3.9232580424793433,0.0,-1.0,49,49,2,2,0,0,0,50,49,0,3.8691464754045497,0.04990529642744904,-1.0,49,49,2,2,0,1,0,49,92,0,3.8397391391834423,1.8176108745099395,-1.0,49,49,2,2,0,0,0,49,49,0,3.8416539631680853,0.0,-1.0,49,49,2,2,0,1,0,50,46,0,3.8709510596561123,1.4952023468449487,-1.0,49,49,2,2,0,1,0,49,57,49,3.948161891508063,1.5857431362732501,0.0,49,0,1,0,0,1,0,49,71,0,3.927484478711774,1.9037051573801351,-1.0,49,49,2,2,0,1,0,49,26,49,3.9588916684745863,0.754003469336776,0.0,49,0,1,0,0,1,0,49,72,0,3.873239519180341,1.4248630057890783,-1.0,49,49,2,2,0,1,0,49,86,0,3.9114109806153174,1.7861749700361778,-1.0,49,49,2,2,0,0,0,50,49,0,3.930762224713362,0.0,-1.0,49,49,2,2
0,0,0,0,49,0,0,3.856943049219926,-1.0,-1.0,49,0,1,0,8.27,3.92,7.0,8.03,s01,0,1,0,49,24,49,3.937845091765456,1.5172210111735158,0.0,49,0,1,0,0,0,0,49,49,0,3.839499899031637,0.0,-1.0,49,49,2,2,0,1,0,49,89,0,3.8539955182722916,0.5637912234437327,-1.0,49,49,2,2,0,1,0,49,15,0,3.8771623693344224,0.9907208899718172,-1.0,49,49,2,2,0,1,0,49,85,0,3.9186821450203664,0.8431089733988976,-1.0,49,49,2,2,0,1,0,49,79,0,3.834023263690228,1.5827240705671142,-1.0,49,49,2,2,0,1,0,49,5,0,3.852758477684603,1.5783688231236728,-1.0,49,49,2,2,0,1,0,49,29,0,3.8855644187749196,1.4669286178392975,-1.0,49,49,2,2,0,1,0,49,49,49,3.8849884102537486,0.9405042042020854,0.0,49,0,1,0,0,1,0,49,73,0,3.6754309705136743,0.2625958129254788,-1.0,49,49,2,2,0,0,0,49,49,0,3.9036274955313752,0.0,-1.0,49,49,2,2,0,1,0,49,31,0,3.8796761719448787,1.1295480866871965,-1.0,49,49,2,2,0,1,0,50,13,0,3.744591785698565,0.5078541950273305,-1.0,49,49,2,2
0,0,0,0,50,0,0,3.810052216093745,-1.0,-1.0,49,0,1,0,7.44,3.73,7.08,7.04,s01,0,1,0,50,28,0,3.5562900834594484,1.7320896149882843,-1.0,49,49,2,2,0,1,0,49,74,0,3.912201033773954,1.6186871948990724,-1.0,49,49,2,2,0,1,0,49,53,0,3.8176560098255408,0.5828738832857813,-1.0,49,49,2,2,0,1,0,49,82,0,3.91581555779969,1.1576954043207304,-1.0,49,49,2,2,0,1,0,49,95,0,3.8935279351455216,1.5363825487209213,-1.0,49,49,2,2,0,1,0,50,73,0,3.8246480062951558,1.1886535527779372,-1.0,49,49,2,2,0,1,0,50,22,0,3.9138026727859123,0.9181612157600533,-1.0,49,49,2,2,0,1,0,49,39,0,3.7955081011582577,0.9938883999447052,-1.0,49,49,2,2,0,0,0,49,49,0,3.8359855693238276,0.0,-1.0,49,49,2,2,0,0,0,50,49,0,3.8544776813281056,0.0,-1.0,49,49,2,2,0,1,0,50,78,49,3.867515056586624,1.5564813623836136,0.0,49,0,1,0,0,1,0,49,87,0,3.7350819612284707,0.8026459944288821,-1.0,49,49,2,2,0,1,0,50,83,0,3.9001899551225407,0.24470348359041114,-1.0,49,49,2,2
0,0,1,0,49,80,0,3.9107113010548047,0.9381876888966887,-1.0,49,49,2,2,7.32,2.55,6.32,5.87,s01,0,0,0,49,49,0,3.807488822126146,0.0,-1.0,49,49,2,2,0,1,0,50,7,0,3.6523567526056744,0.3964187261339685,-1.0,49,49,2,2,0,0,0,49,49,0,3.890359391413316,0.0,-1.0,49,49,2,2,0,0,0,49,49,0,3.779013485655414,0.0,-1.0,49,49,2,2,0,0,0,49,49,0,3.7597680895688623,0.0,-1.0,49,49,2,2,0,1,0,49,34,0,3.882680910939011,1.5213472967059514,-1.0,49,49,2,2,0,1,0,50,6,0,3.8555034170872124,1.278951059751151,-1.0,49,49,2,2,0,1,0,49,5,0,3.9376778886539063,1.0998584453498876,-1.0,49,49,2,2,0,1,0,49,70,49,3.81619138458489,1.6250902476299873,0.0,49,0,1,0,0,1,0,49,49,0,3.9361540577444063,0.7627413196523275,-1.0,49,49,2,2,0,0,0,50,49,0,3.86313415595168,0.0,-1.0,49,49,2,2,0,1,0,50,78,0,3.8734462062671198,1.649144264671669,-1.0,49,49,2,2,0,1,0,50,34,0,3.7974216053975773,0.6444659624482425,-1.0,49,49,2,2
0,0,1,0,50,8,0,3.871075222650667,1.805114730485409,-1.0,49,49,2,2,4.04,3.29,3.62,5.99,s01,0,1,0,49,29,49,3.882789376405135,0.37501263053997647,0.0,49,0,1,0,0,1,0,49,10,49,3.9141028268164333,0.6092014952056793,0.0,49,0,1,0,0,1,0,49,91,0,3.828389822388234,1.330086471647002,-1.0,49,49,2,2,0,1,0,49,49,0,3.7914308585956826,0.6543559147590113,-1.0,49,49,2,2,0,1,0,49,72,0,3.8073899325547864,0.6498402328947304,-1.0,49,49,2,2,0,1,0,49,49,0,3.8036083218718746,0.8912952074772704,-1.0,49,49,2,2,0,1,0,49,80,0,3.8864578947048045,0.8503309443635805,-1.0,49,49,2,2,0,1,0,49,84,0,3.835079239898386,1.1993500901031855,-1.0,49,49,2,2,0,1,0,49,82,0,3.8357474838120056,0.8482851311035972,-1.0,49,49,2,2,0,1,0,50,60,0,3.94394283317523,0.9285717532432592,-1.0,49,49,2,2,0,0,0,49,49,0,3.860173205026025,0.0,-1.0,49,49,2,2,0,1,0,49,22,0,3.8792185599613567,1.5125612952897884,-1.0,49,49,2,2,0,1,0,49,3,0,3.824045443260431,0.9392942927426993,-1.0,49,49,2,2
0,0,1,0,49,10,0,3.848798819827394,1.355632784713593,-1.0,49,49,2,2,1.99,4.86,2.04,7.09,s01,0,1,0,49,43,0,3.874462995723755,1.2338963629563906,-1.0,49,49,2,2,0,0,0,49,49,49,3.8375886023540935,0.0,0.0,49,0,1,0,0,1,0,49,67,0,3.8646809669681996,1.5564212604179501,-1.0,49,49,2,2,0,0,0,49,49,0,3.7959061202691355,0.033950971784621066,-1.0,49,49,2,2,0,0,0,49,50,0,3.7997242387580132,0.0,-1.0,49,49,2,2,0,2,0,49,49,49,3.8823558940463,1.4501648924977073,0.0,49,0,1,0,0,0,0,49,49,0,3.8519753890261126,0.0,-1.0,49,49,2,2,0,1,0,49,49,49,3.7592801424532065,0.9259027286583187,0.0,49,0,1,0,0,1,0,49,95,0,3.893792596840627,0.9792171697257952,-1.0,49,49,2,2,0,1,0,49,62,49,3.851347289289081,1.894987897118489,0.0,49,0,1,0,0,0,0,49,49,0,3.9183312484817363,0.0,-1.0,49,49,2,2,0,1,0,50,8,0,3.8660055951531818,0.9999192893728017,-1.0,49,49,2,2,0,1,0,49,85,49,3.854754265568459,0.9495145844612769,0.0,49,0,1,0
0,0,0,0,50,0,0,3.929523752315511,-1.0,-1.0,49,0,1,0,2.99,2.36,3.63,6.24,s01,0,1,0,49,83,0,3.855143447971359,1.8825934589890945,-1.0,49,49,2,2,0,1,0,49,54,0,3.8631613096825097,0.7030957575790111,-1.0,49,49,2,2,0,1,0,49,68,0,3.8361395003345,1.3007963379361518,-1.0,49,49,2,2,0,1,0,49,82,0,3.8302170932543653,0.5430059987112683,-1.0,49,49,2,2,0,1,0,49,49,0,3.901080781783828,0.6775194611287981,-1.0,49,49,2,2,0,0,0,49,49,0,3.8257778420917,0.0,-1.0,49,49,2,2,0,0,0,49,0,0,3.559407320497854,-1.0,-1.0,49,0,1,0,0,1,0,49,96,0,3.8262773719037226,0.8284929613341876,-1.0,49,49,2,2,0,1,0,49,21,0,3.9101194346008117,0.4970148644278835,-1.0,49,49,2,2,0,1,0,49,9,0,3.8335383241094285,1.4312334397515987,-1.0,49,49,2,2,0,1,0,49,32,0,3.8623647033421826,0.5331714962418072,-1.0,49,49,2,2,0,1,0,49,8,0,3.868699796209657,1.6936536386326895,-1.0,49,49,2,2,0,0,0,50,49,0,3.862160765076681,0.0,-1.0,49,49,2,2
0,0,1,0,50,6,0,3.8684903747773003,1.3460630249486547,-1.0,49,49,2,2,2.71,2.77,3.4,7.35,s01,0,1,0,49,58,0,3.8753996322211837,0.5895800681190636,-1.0,49,49,2,2,0,1,0,50,49,0,3.9429989075271963,1.0903106529907687,-1.0,49,49,2,2,0,1,0,49,49,0,3.9076954715285788,0.5353318762276714,-1.0,49,49,2,2,0,1,0,50,87,0,3.791059355704492,1.5549244538639013,-1.0,49,49,2,2,0,0,0,50,49,0,3.76921205358837,0.0,-1.0,49,49,2,2,0,1,0,49,84,0,3.9133142276600426,0.7400786685265089,-1.0,49,49,2,2,0,1,0,49,21,0,3.8579813274890298,0.7889053415705598,-1.0,49,49,2,2,0,1,0,49,94,0,3.9370815014908467,0.17296213512034203,-1.0,49,49,2,2,0,1,0,49,33,0,3.8917520761484603,1.4669221652865976,-1.0,49,49,2,2,0,1,0,50,86,0,3.836817246852286,1.2911314007975725,-1.0,49,49,2,2,0,1,0,49,77,0,3.864449123372793,1.4694127045850551,-1.0,49,49,2,2,0,1,0,49,38,0,3.8363788768804086,2.28713045441714,-1.0,49,49,2,2,0,1,0,50,17,0,3.9666132910388274,0.5322714611863114,-1.0,49,49,2,2
0,0,1,1,49,26,72,3.7389906765737186,1.8587522605761002,0.9382729649178215,49,0,1,0,1.95,3.12,2.87,6.18,s01,0,1,0,49,94,0,3.720561189916587,1.486330024591761,-1.0,49,49,2,2,0,1,0,49,53,0,3.846995060987775,0.9970762670949805,-1.0,49,49,2,2,0,0,0,49,49,0,3.674628104783612,0.0,-1.0,49,49,2,2,0,0,0,50,49,0,3.9007878926007598,0.0,-1.0,49,49,2,2,0,1,0,50,17,0,3.89815797722207,1.551164052641958,-1.0,49,49,2,2,0,0,0,49,49,0,3.866351720542149,0.0,-1.0,49,49,2,2,0,0,0,49,49,0,3.836755276894452,0.0,-1.0,49,49,2,2,0,1,0,49,26,0,3.8640120726660365,1.6451963295579426,-1.0,49,49,2,2,0,1,0,49,61,0,3.935998879910498,1.2980478579031378,-1.0,49,49,2,2,0,1,0,49,11,0,3.818599969801182,0.8348378771379652,-1.0,49,49,2,2,0,1,0,50,86,0,3.8153909396485273,1.7381138024781129,-1.0,49,49,2,2,0,1,0,49,54,0,3.828074883439625,0.8455741772578602,-1.0,49,49,2,2,0,1,0,50,80,49,3.888994756099117,0.9969840460232358,0.0,49,0,1,0
0,0,1,0,49,80,0,3.768528902056717,1.530712100239076,-1.0,49,49,2,2,4.18,2.24,3.04,5.04,s01,0,0,0,49,0,0,3.897916644799514,-1.0,-1.0,49,0,1,0,0,0,0,49,49,0,3.8613810466953984,0.0,-1.0,49,49,2,2,0,1,0,49,23,49,3.897836780323316,1.7989905965511128,0.0,49,0,1,0,0,1,0,50,34,0,3.9304613283172563,1.2302687815801445,-1.0,49,49,2,2,0,1,0,49,86,0,3.7870428020711087,0.41172122275089756,-1.0,49,49,2,2,0,1,0,49,85,0,3.963014126799823,1.4608020010267058,-1.0,49,49,2,2,0,1,0,50,6,49,3.885657561737691,1.5658635048874228,0.0,49,0,1,0,0,1,0,49,82,0,3.85891453426299,0.9893251948361849,-1.0,49,49,2,2,0,1,0,50,69,49,3.882454509060751,1.5319568374746422,0.0,49,0,1,0,0,0,0,50,49,0,3.731795730575278,0.0,-1.0,49,49,2,2,0,1,0,49,78,0,3.8793929260400692,0.9116668938481001,-1.0,49,49,2,2,0,1,0,49,83,0,3.9169651632104054,1.9296388832160487,-1.0,49,49,2,2,0,1,0,49,76,0,3.785640453739018,0.9806812172141308,-1.0,49,49,2,2
0,0,1,0,49,85,0,3.872476631773779,1.2027408642757613,-1.0,49,49,2,2,3.17,8.08,2.91,5.04,s01,0,1,0,49,67,0,3.9096908894993834,0.9974787526343116,-1.0,49,49,2,2,0,1,0,49,70,0,3.8074644909071207,1.6744767958028737,-1.0,49,49,2,2,0,0,0,50,49,0,3.8959492977282735,0.0,-1.0,49,49,2,2,0,0,0,49,0,0,3.805941807603111,-1.0,-1.0,49,0,1,0,0,0,0,49,49,0,3.7503737236863195,0.0,-1.0,49,49,2,2,0,1,0,50,85,0,3.861384815523602,0.9433299023033157,-1.0,49,49,2,2,0,1,0,50,92,0,3.914407282308011,1.3944721786127965,-1.0,49,49,2,2,0,1,0,49,49,0,3.8726673573470713,0.6475311454244393,-1.0,49,49,2,2,0,1,0,49,36,0,3.8852422753486064,1.5251988107535108,-1.0,49,49,2,2,0,0,0,49,49,0,3.7522073733910624,0.0,-1.0,49,49,2,2,0,1,0,49,83,0,3.9135763409156064,1.2115732875902403,-1.0,49,49,2,2,0,1,0,49,49,0,3.856909624355085,1.2564172868689614,-1.0,49,49,2,2,0,0,0,49,15,0,3.7952037647474803,0.19536880934444797,-1.0,49,49,2,2
0,0,1,0,49,35,0,3.824936679310001,1.0348200198268855,-1.0,49,49,2,2,6.81,7.44,8.15,7.14,s01,0,1,0,50,83,0,3.8387045195551197,0.7536424242900052,-1.0,49,49,2,2,0,1,0,49,28,0,3.9652884161857167,1.4230894477049842,-1.0,49,49,2,2,0,1,0,49,90,0,3.9096367407964094,0.22235929896436668,-1.0,49,49,2,2,0,1,0,49,93,0,3.8616754078070032,0.9911951704613281,-1.0,49,49,2,2,0,1,0,49,60,0,3.9324273965938503,1.7943297345213205,-1.0,49,49,2,2,0,1,0,49,43,49,3.859861368082985,0.758777878029914,0.0,49,0,1,0,0,1,0,49,6,0,3.8682215651065444,0.9903420163099894,-1.0,49,49,2,2,0,1,0,49,46,0,3.9172105352632682,0.8483616761551055,-1.0,49,49,2,2,0,1,0,49,81,0,3.8707755295039497,0.9957570495061538,-1.0,49,49,2,2,0,1,0,49,65,0,3.7935233778107103,0.7826371084722241,-1.0,49,49,2,2,0,1,0,49,24,0,3.9515328278474917,0.8102038594602966,-1.0,49,49,2,2,0,1,0,50,56,0,3.8996826415006547,1.308597233691261,-1.0,49,49,2,2,0,1,0,49,13,0,3.9002861368109483,0.9153122852210853,-1.0,49,49,2,2
0,0,1,0,49,20,0,3.950217439716841,1.5492517518394042,-1.0,49,49,2,2,2.46,6.91,6.77,6.41,s01,0,1,0,49,24,0,3.893270857345336,0.8128326595457778,-1.0,49,49,2,2,0,1,0,49,54,0,3.915353802134457,1.5305142651582009,-1.0,49,49,2,2,0,1,0,49,80,49,3.924814138363878,1.3883353791435924,0.0,49,0,1,0,0,1,0,49,46,0,3.9540550925811355,1.414956722763657,-1.0,49,49,2,2,0,0,0,49,49,0,3.896731623975374,0.0,-1.0,49,49,2,2,0,1,0,49,56,0,3.824438287547449,0.38921762443756736,-1.0,49,49,2,2,0,0,0,50,0,0,3.7790243664509098,-1.0,-1.0,49,0,1,0,0,1,0,49,90,0,3.8700963710928873,1.530507584031546,-1.0,49,49,2,2,0,1,0,49,71,0,3.841369705485711,1.848268776232813,-1.0,49,49,2,2,0,0,0,49,0,0,3.778797625160009,-1.0,-1.0,49,0,1,0,0,1,0,49,95,0,3.8719458623921796,1.9133000279185857,-1.0,49,49,2,2,0,0,0,50,49,0,3.8138320372521646,0.0,-1.0,49,49,2,2,0,1,0,49,87,0,3.8607143621857656,1.3428568227932334,-1.0,49,49,2,2
0,0,1,0,50,90,0,3.8661036530047195,0.9632262873550168,-1.0,49,49,2,2,7.23,7.15,6.94,8.01,s01,0,1,0,50,88,0,3.8991257596295155,0.8706554298804762,-1.0,49,49,2,2,0,0,0,50,49,0,3.951883316545074,0.0,-1.0,49,49,2,2,0,1,0,49,7,0,3.880935691930662,1.4415461629827093,-1.0,49,49,2,2,0,1,0,49,62,49,3.86153146800798,0.9015198220931786,0.0,49,0,1,0,0,1,0,49,30,0,3.815951259597306,0.9907765634568848,-1.0,49,49,2,2,0,1,0,49,49,0,3.8423681296770495,0.7900095447783738,-1.0,49,49,2,2,0,1,0,50,18,0,3.8843276405276006,1.534178081672248,-1.0,49,49,2,2,0,1,0,49,21,0,3.7701136942941607,1.1848727921469326,-1.0,49,49,2,2,0,0,0,50,49,0,3.7097839279722407,0.0,-1.0,49,49,2,2,0,1,0,50,13,0,3.8863638190048673,1.4513693189574752,-1.0,49,49,2,2,0,0,0,49,49,0,3.8303642625217726,0.0,-1.0,49,49,2,2,0,1,0,49,32,0,3.9004927981449597,1.5805970085967955,-1.0,49,49,2,2,0,1,0,49,88,0,3.740176233891209,0.7457239188241443,-1.0,49,49,2,2
0,0,1,0,49,49,0,3.7915120918387815,0.961396309447843,-1.0,49,49,2,2,7.17,8.0,8.1,6.79,s01,0,1,0,49,86,0,3.792356881510576,0.9717094946858592,-1.0,49,49,2,2,0,1,0,49,87,0,3.903212943089551,1.5790188531082916,-1.0,49,49,2,2,0,0,0,50,49,0,3.8443810617226233,0.0,-1.0,49,49,2,2,0,0,0,49,49,0,3.85871346573451,0.0,-1.0,49,49,2,2,0,1,0,49,75,0,3.871212559623736,0.727206821844411,-1.0,49,49,2,2,0,0,0,50,49,0,3.8269849995513625,0.0,-1.0,49,49,2,2,0,1,0,49,53,0,3.9148398840067795,1.542645473931531,-1.0,49,49,2,2,0,1,0,49,91,0,3.847960260333864,1.9929155003743284,-1.0,49,49,2,2,0,1,0,49,18,0,3.9262572748325857,1.2265444055917005,-1.0,49,49,2,2,0,1,0,49,17,0,3.8683198727689816,0.7738346851507647,-1.0,49,49,2,2,0,1,0,49,95,0,3.875963517419085,0.9550006227696877,-1.0,49,49,2,2,0,1,0,49,13,0,3.7666298305666746,0.8277652547660492,-1.0,49,49,2,2,0,1,0,50,41,0,3.8561934459450096,0.33196768780347935,-1.0,49,49,2,2
0,0,1,0,49,15,0,3.848359430999344,0.9995254132192339,-1.0,49,49,2,2,8.26,7.91,7.19,8.13,s01,0,0,0,49,49,0,3.8698480719990744,0.0,-1.0,49,49,2,2,0,1,0,49,22,0,3.7797443988738317,1.3838563242036566,-1.0,49,49,2,2,0,0,0,49,49,0,3.773395544719258,0.0,-1.0,49,49,2,2,0,1,0,49,58,0,3.818371157091971,0.758549212021344,-1.0,49,49,2,2,0,0,0,49,49,0,3.844242620231706,0.0,-1.0,49,49,2,2,0,1,0,50,25,0,3.8309847061271634,1.5327094442666769,-1.0,49,49,2,2,0,1,0,49,20,0,3.8999243945586297,2.5433334767365725,-1.0,49,49,2,2,0,1,0,49,57,0,3.9132328731194526,1.8481461172348173,-1.0,49,49,2,2,0,0,0,49,0,0,3.770172800716533,-1.0,-1.0,49,0,1,0,0,0,0,49,0,0,3.833378949291518,-1.0,-1.0,49,0,1,0,0,1,0,49,11,0,3.8332971878552042,1.58903155600745,-1.0,49,49,2,2,0,1,0,50,68,0,3.875296991315558,1.8561695042536714,-1.0,49,49,2,2,0,0,0,49,49,0,3.7687652078635163,0.0,-1.0,49,49,2,2
0,0,0,0,49,49,0,3.89290673266709,0.0,-1.0,49,49,2,2,9.0,7.95,8.37,7.86,s01,0,1,0,49,9,0,3.887363921104826,0.9130117522708397,-1.0,49,49,2,2,0,1,0,49,48,0,3.9575966502299043,1.505565703072159,-1.0,49,49,2,2,0,1,0,50,11,0,3.845039541094554,0.9356283928036238,-1.0,49,49,2,2,0,1,0,50,50,0,3.8779783896875437,0.642537638503418,-1.0,49,49,2,2,0,1,0,50,81,0,3.862261753871427,1.2768915693195846,-1.0,49,49,2,2,0,1,0,50,20,0,3.898651374367037,1.3557468921452331,-1.0,49,49,2,2,0,0,0,50,0,0,3.8339247002947916,-1.0,-1.0,49,0,1,0,0,0,0,49,50,0,3.8893714397824475,0.0,-1.0,49,49,2,2,0,1,0,49,85,0,3.8345908641740793,1.2846086768297151,-1.0,49,49,2,2,0,1,1,50,86,80,3.8788002390214884,1.4295218717435676,0.48324543982475787,49,0,1,0,0,1,0,49,89,0,3.852626415315175,1.358940490699567,-1.0,49,49,2,2,0,1,0,49,38,0,3.856117596891903,1.226201920630549,-1.0,49,49,2,2,0,1,0,49,54,49,3.9216414520287346,1.7909152826198707,0.0,49,0,1,0
0,0,1,0,49,49,0,3.774813188198441,0.5257930248008595,-1.0,49,49,2,2,7.09,2.08,7.06,7.37,s01,0,1,0,49,87,0,3.8902848758887467,1.319529331412571,-1.0,49,49,2,2,0,1,0,49,17,0,3.8125385031396894,0.4309487620744993,-1.0,49,49,2,2,0,1,0,50,86,0,3.8541022180987543,1.424051157601437,-1.0,49,49,2,2,0,1,0,49,36,0,3.844201307860021,0.9975121146474225,-1.0,49,49,2,2,0,1,0,50,92,0,3.79608352761151,0.4254957060148279,-1.0,49,49,2,2,0,1,0,49,49,0,3.8803848530064897,1.4495178874608436,-1.0,49,49,2,2,0,1,0,49,53,0,3.9551099824488314,2.026000802315563,-1.0,49,49,2,2,0,1,0,49,49,0,3.892166506246499,1.4403698537357859,-1.0,49,49,2,2,0,1,0,50,12,0,3.897033124906011,1.4181287564613536,-1.0,49,49,2,2,0,0,0,50,49,0,3.885893160962823,0.0,-1.0,49,49,2,2,0,1,0,49,51,0,3.874582613597471,0.9412493396323786,-1.0,49,49,2,2,0,0,0,49,0,0,3.9027743748456403,-1.0,-1.0,49,0,1,0,0,0,0,49,49,0,3.847887967705843,0.0,-1.0,49,49,2,2
0,0,0,0,49,49,0,3.840154034529592,0.0,-1.0,49,49,2,2,8.15,3.01,7.37,7.9,s01,0,0,0,50,49,0,3.7569742163028765,0.0,-1.0,49,49,2,2,0,0,0,49,50,0,3.7695276988748607,0.0,-1.0,49,49,2,2,0,1,0,49,19,0,3.937579299021052,1.3523303377493654,-1.0,49,49,2,2,0,1,0,50,11,0,3.8957355708135695,1.8765567840300146,-1.0,49,49,2,2,0,0,0,49,49,0,3.8140141200178,0.0,-1.0,49,49,2,2,0,0,0,49,49,0,3.81918121412321,0.0,-1.0,49,49,2,2,0,1,0,49,49,49,3.8385246852043386,0.5848928683331179,0.0,49,0,1,0,0,1,0,49,5,0,3.875713658683831,0.913119929839933,-1.0,49,49,2,2,0,0,0,49,49,0,3.794135112068818,0.0,-1.0,49,49,2,2,0,0,0,49,49,0,3.825678750744393,0.0,-1.0,49,49,2,2,0,1,0,50,23,0,3.822962181705361,1.3892114701834448,-1.0,49,49,2,2,0,1,0,49,70,0,3.9231400258159814,0.7264089613818101,-1.0,49,49,2,2,0,1,0,49,86,0,3.8801647329129447,0.5900576762156728,-1.0,49,49,2,2
0,0,1,0,49,15,0,3.7934507728080997,1.2052463206984823,-1.0,49,49,2,2,7.04,7.09,8.01,8.22,s01,0,0,0,49,49,0,3.8462985544099646,0.0,-1.0,49,49,2,2,0,1,0,49,14,0,3.876869685937881,1.5601337556110728,-1.0,49,49,2,2,0,1,0,50,37,0,3.92030087529751,1.2077262741285941,-1.0,49,49,2,2,0,1,0,49,34,0,3.9029559975116648,1.2634478555552902,-1.0,49,49,2,2,0,1,0,49,42,0,3.913198692767677,1.1219375816205743,-1.0,49,49,2,2,0,1,0,50,37,0,3.9216212380520945,1.5047224572366185,-1.0,49,49,2,2,0,1,0,49,5,0,3.885881682871668,1.5181769433602563,-1.0,49,49,2,2,0,1,0,49,92,0,3.8107184795684304,0.9420301798490146,-1.0,49,49,2,2,0,1,0,50,49,0,3.9096691376340655,0.18991881438838512,-1.0,49,49,2,2,0,1,0,49,47,0,3.76156656702621,1.4302749019918843,-1.0,49,49,2,2,0,0,0,49,49,0,3.867122779270105,0.0,-1.0,49,49,2,2,0,0,0,49,49,0,3.868293120186046,0.0,-1.0,49,49,2,2,0,1,0,49,79,0,3.9007927707811283,1.8020991908327306,-1.0,49,49,2,2
0,0,0,0,49,0,0,3.788259848840912,-1.0,-1.0,49,0,1,0,8.86,7.21,8.65,7.21,s01,0,1,0,49,32,49,3.7899517170979826,1.5763764316111573,0.0,49,0,1,0,0,0,0,49,0,0,3.85239612205097,-1.0,-1.0,49,0,1,0,0,1,0,50,23,0,3.9302434950778915,0.984606601672655,-1.0,49,49,2,2,0,1,0,49,73,0,3.9303689573096863,1.39086670158823,-1.0,49,49,2,2,0,1,0,49,70,0,3.900381258876469,0.9448829105583973,-1.0,49,49,2,2,0,1,0,50,73,0,3.9292390804722754,0.5166534191181226,-1.0,49,49,2,2,0,1,0,49,49,0,3.9238194199570233,1.535400198567238,-1.0,49,49,2,2,0,1,0,49,90,0,3.823135039858905,0.7777845625290061,-1.0,49,49,2,2,0,1,0,49,31,0,3.911549991760279,1.3978074531297064,-1.0,49,49,2,2,0,1,0,50,9,49,3.855060625244401,2.0946314577427305,0.0,49,0,1,0,0,1,0,49,18,0,3.924038428586804,0.5833291325612712,-1.0,49,49,2,2,0,1,0,49,28,0,3.8155316851178616,1.5961267470091103,-1.0,49,49,2,2,0,0,0,49,49,0,3.816479529058488,0.0,-1.0,49,49,2,2
0,0,0,0,50,49,0,3.625931653581361,0.0,-1.0,49,49,2,2,7.28,7.27,7.41,8.24,s01,0,1,0,49,49,0,3.8249772777304893,0.44166527817703216,-1.0,49,49,2,2,0,0,0,49,0,0,3.7939300142043795,-1.0,-1.0,49,0,1,0,0,0,0,49,49,0,3.789220674980626,0.0,-1.0,49,49,2,2,0,1,0,49,11,0,3.7992891379173135,0.8996124966398387,-1.0,49,49,2,2,0,1,0,49,22,0,3.7471783213063787,1.2000024205320268,-1.0,49,49,2,2,0,1,0,49,81,0,3.894818996255386,1.1778040717558866,-1.0,49,49,2,2,0,1,0,50,88,0,3.856162631310081,0.793549971711596,-1.0,49,49,2,2,0,1,0,49,43,0,3.9354260517490594,0.9558876406226657,-1.0,49,49,2,2,0,0,0,49,13,0,3.887204577323519,0.20911756262386066,-1.0,49,49,2,2,0,0,0,50,49,0,3.818885910339811,0.0,-1.0,49,49,2,2,0,0,0,49,49,0,3.8863392762689966,0.0,-1.0,49,49,2,2,0,1,0,49,72,0,3.901911020488906,1.3381867526149116,-1.0,49,49,2,2,0,1,0,49,95,0,3.79668926001674,0.9975574432123815,-1.0,49,49,2,2
0,0,1,0,49,12,0,3.8708605562648137,1.467438528209708,-1.0,49,49,2,2,7.35,6.95,7.03,7.29,s01,0,0,0,49,49,0,3.84561075857876,0.0,-1.0,49,49,2,2,0,1,0,49,5,0,3.872891021324455,1.3805830664132825,-1.0,49,49,2,2,0,0,0,49,1,0,3.7273989200749047,0.9758327032759602,-1.0,49,49,2,2,0,1,0,49,96,0,3.9196122259691184,1.4815096518367679,-1.0,49,49,2,2,0,1,0,49,78,0,3.905880487391756,0.5792944933815538,-1.0,49,49,2,2,0,1,0,49,44,0,3.867950588586989,1.3296094071239923,-1.0,49,49,2,2,0,0,0,49,49,0,3.943987027941971,0.0,-1.0,49,49,2,2,0,1,0,49,94,0,3.909177516929497,2.1989074759446092,-1.0,49,49,2,2,0,1,0,49,31,49,3.893596493020916,0.991256744360525,0.0,49,0,1,0,0,1,0,49,83,0,3.8540640846523266,1.7840514478117413,-1.0,49,49,2,2,0,0,0,49,0,0,3.8632598005090126,-1.0,-1.0,49,0,1,0,0,1,0,50,54,0,3.942596442875198,0.9541097908505215,-1.0,49,49,2,2,0,0,0,50,49,0,3.8134957478388314,0.0,-1.0,49,49,2,2
0,0,1,0,49,69,0,3.9176614207964064,0.9753079245925325,-1.0,49,49,2,2,3.88,3.35,4.01,7.87,s01,0,1,0,50,27,0,3.9320977061545164,0.7241238479283943,-1.0,49,49,2,2,0,1,0,49,72,0,3.9003509683720026,1.4593925926685973,-1.0,49,49,2,2,0,1,0,50,90,0,3.861981514236406,0.31508774854630456,-1.0,49,49,2,2,0,0,0,49,49,0,3.8754652952895796,0.0,-1.0,49,49,2,2,0,1,0,49,37,0,3.967459286279959,1.3894740135215493,-1.0,49,49,2,2,0,1,0,49,49,0,3.8547092198978627,1.6598060111178357,-1.0,49,49,2,2,0,0,0,49,49,0,3.8963459593075003,0.0,-1.0,49,49,2,2,0,0,0,50,49,0,3.8580571283775957,0.0,-1.0,49,49,2,2,0,1,0,50,49,0,3.8507801665954533,0.9303673752656111,-1.0,49,49,2,2,0,1,0,49,64,49,3.9284542363076733,0.5055860115837834,0.0,49,0,1,0,0,1,0,49,10,0,3.812446767596916,1.6073870166996915,-1.0,49,49,2,2,0,1,0,50,72,0,3.6488000295637746,0.17689263140445166,-1.0,49,49,2,2,0,1,0,49,10,0,3.867317940871387,0.9625569458473803,-1.0,49,49,2,2
0,0,1,0,49,88,0,3.785865182916513,2.182316953553325,-1.0,49,49,2,2,1.36,2.27,3.0,8.14,s01,0,1,0,49,29,0,3.935779769865809,0.9221059506482774,-1.0,49,49,2,2,0,1,0,49,84,0,3.909050646857479,0.964583063089838,-1.0,49,49,2,2,0,1,0,49,49,0,3.785700568456023,0.5722287403525294,-1.0,49,49,2,2,0,1,0,49,88,0,3.8583997785957878,0.9264006847291165,-1.0,49,49,2,2,0,1,0,50,67,0,3.8438455554113062,1.3458654458300894,-1.0,49,49,2,2,0,1,0,50,47,0,3.907564537457818,2.0409824407906094,-1.0,49,49,2,2,0,0,0,49,49,0,3.8355288650488006,0.0,-1.0,49,49,2,2,0,1,0,49,32,0,3.9594098675518294,1.9877933844694047,-1.0,49,49,2,2,0,1,0,49,37,0,3.850691075847544,1.4320464200349259,-1.0,49,49,2,2,0,0,0,49,49,0,3.9463758030047584,0.0,-1.0,49,49,2,2,0,0,0,49,49,0,3.9106382545026914,0.0,-1.0,49,49,2,2,0,1,0,49,82,0,3.8157111427091066,0.9549191520564122,-1.0,49,49,2,2,0,1,0,49,19,0,3.871705172462762,1.4505881640542053,-1.0,49,49,2,2
0,0,1,0,49,38,0,3.8942007945034143,1.8942868507535928,-1.0,49,49,2,2,2.08,2.99,3.22,7.33,s01,0,0,0,49,0,0,3.8205723542729553,-1.0,-1.0,49,0,1,0,0,1,0,49,79,0,3.907707371429428,2.0384474354374182,-1.0,49,49,2,2,0,1,0,49,55,0,3.6057136094110684,1.3328975306139312,-1.0,49,49,2,2,0,1,0,49,31,49,3.878213129296921,2.0037618333645857,0.0,49,0,1,0,0,1,0,49,14,0,3.9062269664170683,0.9557036055233483,-1.0,49,49,2,2,0,1,0,49,49,49,3.881113728259093,0.6407714587625389,0.0,49,0,1,0,0,0,0,50,49,0,3.804514301806002,0.0,-1.0,49,49,2,2,0,0,0,49,49,0,3.910877282259562,0.0,-1.0,49,49,2,2,0,1,0,49,24,0,3.930838882830445,1.4588261536189824,-1.0,49,49,2,2,0,1,0,49,3,0,3.6600727397268846,0.8899815316183279,-1.0,49,49,2,2,0,1,0,49,64,0,3.8969802162529152,0.7009781065416236,-1.0,49,49,2,2,0,1,0,49,17,0,3.76949890090501,1.53766623581173,-1.0,49,49,2,2,0,1,0,49,23,49,3.719196064587101,1.315384904078807,0.0,49,0,1,0
0,0,1,0,49,91,49,3.801843521085275,1.5658516387095538,0.0,49,0,1,0,3.03,8.14,2.86,8.04,s01,0,0,0,49,0,0,3.8804429667669424,-1.0,-1.0,49,0,1,0,0,1,0,49,22,0,3.8631215344566203,0.9643479915627406,-1.0,49,49,2,2,0,1,0,49,17,0,3.876327572213528,0.9251170694072162,-1.0,49,49,2,2,0,1,0,49,54,0,3.9656346770063866,1.9973086719688526,-1.0,49,49,2,2,0,1,0,49,49,0,3.645861426092291,0.8783843401195701,-1.0,49,49,2,2,0,1,0,49,57,0,3.968056352592976,2.3822058715084604,-1.0,49,49,2,2,0,0,0,49,49,0,3.9115531447281238,0.0,-1.0,49,49,2,2,0,1,0,50,87,0,3.937289246691008,1.4716119925472688,-1.0,49,49,2,2,0,1,0,50,51,0,3.8839504712346167,1.4486387047820992,-1.0,49,49,2,2,0,0,0,49,49,0,3.929020855230141,0.0,-1.0,49,49,2,2,0,0,0,49,49,0,3.9101248889805738,0.0,-1.0,49,49,2,2,0,1,0,49,78,0,3.8495885905919054,1.4702882424017933,-1.0,49,49,2,2,0,1,0,49,53,0,3.892648660705748,0.4709723062451894,-1.0,49,49,2,2
0,0,1,0,50,49,0,3.8727985268020095,0.24642711489926988,-1.0,49,49,2,2,2.28,8.0,3.27,3.95,s01,0,1,0,49,87,0,3.91245448434604,1.2546812305628297,-1.0,49,49,2,2,0,1,0,49,79,0,3.891269757129398,2.2074708540315964,-1.0,49,49,2,2,0,1,0,49,49,0,3.857750761470424,0.5118775554721434,-1.0,49,49,2,2,0,1,0,49,77,49,3.9119344764503086,0.9133076296907182,0.0,49,0,1,0,0,1,0,49,93,0,3.8399432476884923,1.271348682655646,-1.0,49,49,2,2,0,1,0,50,32,0,3.9585594442928667,0.9022532668947385,-1.0,49,49,2,2,0,0,0,50,49,0,3.913060051010163,0.0,-1.0,49,49,2,2,0,1,0,50,24,0,3.863726522550422,0.7456643858760804,-1.0,49,49,2,2,0,1,0,49,56,0,3.9035590632346775,1.4020126573848644,-1.0,49,49,2,2,0,0,0,49,49,0,3.941310615051173,0.0,-1.0,49,49,2,2,0,1,0,50,85,0,3.8844836862746615,1.515982116089826,-1.0,49,49,2,2,0,1,0,49,57,49,3.9444304018041594,1.580511476563127,0.0,49,0,1,0,0,1,0,49,66,0,3.875469930045091,1.231821815154747,-1.0,49,49,2,2
0,0,1,0,49,86,0,3.951704399657516,0.9994992342999368,-1.0,49,49,2,2,3.81,3.85,4.78,5.13,s01,0,1,0,49,11,0,3.862522982997672,1.0914465247671699,-1.0,49,49,2,2,0,1,0,49,20,0,3.915787119218238,1.9587922163676352,-1.0,49,49,2,2,0,0,0,50,49,0,3.8645757673658907,0.0,-1.0,49,49,2,2,0,1,0,49,82,0,3.9017375223249626,0.8118139504459649,-1.0,49,49,2,2,0,1,0,49,18,0,3.927555411231323,1.097316717305054,-1.0,49,49,2,2,0,1,0,49,76,0,3.8445992661358455,1.4985939561637165,-1.0,49,49,2,2,0,0,0,49,49,0,3.8828681733403645,0.0,-1.0,49,49,2,2,0,0,0,49,49,0,3.7832714172298174,0.0,-1.0,49,49,2,2,0,1,0,49,18,0,3.9128999693813635,1.402591103106514,-1.0,49,49,2,2,0,1,0,49,18,0,3.8203603700577657,0.8362858400000452,-1.0,49,49,2,2,0,0,0,49,3,0,3.9095157368473723,0.17859515266261544,-1.0,49,49,2,2,0,1,0,49,73,0,3.8279373228490665,0.3406979743723886,-1.0,49,49,2,2,0,0,0,50,49,0,3.849965587244031,0.0,-1.0,49,49,2,2
0,0,1,0,49,43,0,3.9124093682517223,2.1290138325996133,-1.0,49,49,2,2,2.28,7.09,7.28,6.92,s01,0,1,0,49,3,0,3.8086647101281867,0.9597124733999922,-1.0,49,49,2,2,0,1,0,50,22,0,3.897012410761793,0.9985409857695587,-1.0,49,49,2,2,0,1,0,49,71,0,3.893958139945684,0.9509214751210764,-1.0,49,49,2,2,0,1,0,49,65,0,3.848623282204319,0.7612096535076825,-1.0,49,49,2,2,0,1,0,49,28,0,3.8451791714280894,0.8944336116656739,-1.0,49,49,2,2,0,1,0,49,38,0,3.862564504675193,1.4064445169580688,-1.0,49,49,2,2,0,1,0,49,72,0,3.868157180341056,1.505697375160046,-1.0,49,49,2,2,0,0,0,49,49,0,3.8813395048481913,0.0,-1.0,49,49,2,2,0,1,0,50,87,0,3.801602430423935,0.5956787279197716,-1.0,49,49,2,2,0,1,0,50,23,0,3.9494482052218496,1.4686822721984487,-1.0,49,49,2,2,0,1,0,49,28,0,3.915347365579359,1.654681991831231,-1.0,49,49,2,2,0,1,0,49,60,0,3.8981904923665778,0.45995063778130824,-1.0,49,49,2,2,0,0,0,49,49,0,3.88584669533123,0.0,-1.0,49,49,2,2
0,0,0,0,49,49,0,3.746075891599134,0.0,-1.0,49,49,2,2,2.06,8.15,8.05,5.18,s01,0,1,0,50,7,0,3.7601441776339786,1.3125239848808086,-1.0,49,49,2,2,0,0,0,49,49,0,3.5946506088686285,0.0,-1.0,49,49,2,2,0,0,0,50,7,0,3.747002288335016,0.03960375135468993,-1.0,49,49,2,2,0,1,0,49,21,0,3.9165552155960706,1.7543621497087216,-1.0,49,49,2,2,0,1,0,49,73,49,3.8528123551045304,1.29274396351846,0.0,49,0,1,0,0,1,0,49,95,0,3.8889349359203673,0.994878789601987,-1.0,49,49,2,2,0,0,0,49,49,0,3.8693883787860472,0.0,-1.0,49,49,2,2,0,1,0,50,89,0,3.678720054919035,0.9828762092280798,-1.0,49,49,2,2,0,1,0,50,74,0,3.8900497057321526,1.3926176969054034,-1.0,49,49,2,2,0,1,0,49,24,0,3.9239356009752218,1.8889816025133315,-1.0,49,49,2,2,0,1,0,49,28,49,3.890768600449389,1.5277992859757992,0.0,49,0,1,0,0,1,0,49,75,0,3.8975240849874364,1.6886809894252317,-1.0,49,49,2,2,0,0,0,49,0,0,3.909366000905036,-1.0,-1.0,49,0,1,0
0,0,1,0,49,12,0,3.9099312062826086,1.9052436742795251,-1.0,49,49,2,2,2.9,6.92,6.5,3.87,s01,0,1,0,49,45,0,3.860514322563736,0.9911347208171374,-1.0,49,49,2,2,0,1,0,49,79,0,3.846749666173073,1.7627788548667813,-1.0,49,49,2,2,0,1,0,49,5,49,3.896096641205416,1.174793263578527,0.0,49,0,1,0,0,0,0,49,49,0,3.915935338101669,0.0,-1.0,49,49,2,2,0,1,0,49,82,0,3.8275961427081633,0.9774206671658514,-1.0,49,49,2,2,0,1,0,49,9,0,3.7941893416900623,0.939108075938744,-1.0,49,49,2,2,0,0,0,50,0,0,3.8618866268956142,-1.0,-1.0,49,0,1,0,0,1,0,49,95,0,3.899167088179691,1.5399347397638583,-1.0,49,49,2,2,0,1,0,49,48,0,3.895370372216789,1.8834064482239845,-1.0,49,49,2,2,0,2,0,49,77,49,3.932949318456718,1.680296686725975,0.0,49,0,1,0,0,1,0,50,31,0,3.926561654595353,1.3577928132324257,-1.0,49,49,2,2,0,1,0,49,97,0,3.8998912948272246,0.865910465383036,-1.0,49,49,2,2,0,1,0,50,24,0,3.9091667476265126,1.1779502722587816,-1.0,49,49,2,2
0,0,1,0,49,28,0,3.783876331451395,0.9882066524641144,-1.0,49,49,2,2,2.31,6.88,3.1,6.77,s01,0,1,0,49,9,0,3.9203130230628673,0.9998155479306357,-1.0,49,49,2,2,0,1,0,49,83,0,3.8623006234205244,1.5019028601290696,-1.0,49,49,2,2,0,1,0,49,75,0,3.8151742637738817,1.4004350724606531,-1.0,49,49,2,2,0,1,0,50,22,0,3.904142858233951,1.4683650405217545,-1.0,49,49,2,2,0,1,0,49,95,49,3.873930421443657,0.9918747274788102,0.0,49,0,1,0,0,1,0,49,46,0,3.8868637087799986,1.4088937287665881,-1.0,49,49,2,2,0,0,0,49,49,0,3.8434429698433368,0.0,-1.0,49,49,2,2,0,1,0,49,89,0,3.946507356355102,1.5192170476514846,-1.0,49,49,2,2,0,1,0,49,38,0,3.840163394806633,1.419616566966336,-1.0,49,49,2,2,0,0,0,49,0,0,3.804627118078977,-1.0,-1.0,49,0,1,0,0,1,0,49,71,0,3.8768499266622753,0.8177907964253606,-1.0,49,49,2,2,0,1,0,49,11,0,3.862951679763691,0.4976855983450933,-1.0,49,49,2,2,0,1,0,50,7,0,3.7129848888790544,1.3423955777923249,-1.0,49,49,2,2
0,0,1,0,49,56,0,3.8450276918749,1.3817434196894123,-1.0,49,49,2,2,3.33,7.18,6.54,6.62,s01,0,1,0,49,49,0,3.9004444928184565,1.365626281168256,-1.0,49,49,2,2,0,1,0,49,90,0,3.868063821847202,1.4280807411583307,-1.0,49,49,2,2,0,1,0,49,55,0,3.89476984160205,1.648533415750029,-1.0,49,49,2,2,0,0,0,49,49,49,3.898991389700495,0.0,0.0,49,0,1,0,0,1,0,49,7,0,3.8322465273159656,1.6734991389346445,-1.0,49,49,2,2,0,0,0,49,49,0,3.851931499036307,0.0,-1.0,49,49,2,2,0,1,0,50,66,0,3.932118222340916,1.0850819609294515,-1.0,49,49,2,2,0,1,0,49,10,0,3.8251455851959846,0.9674249082178068,-1.0,49,49,2,2,0,1,0,49,60,0,3.8908652425638053,1.512171952872793,-1.0,49,49,2,2,0,1,0,49,72,0,3.9073326247594107,1.4600032178717286,-1.0,49,49,2,2,0,1,0,49,80,0,3.9016660591879355,0.9951920611228936,-1.0,49,49,2,2,0,1,0,49,21,0,3.900401705359346,1.1138787781123518,-1.0,49,49,2,2,0,1,0,49,28,0,3.885003844429963,1.9626710654492265,-1.0,49,49,2,2
0,0,1,0,50,15,0,3.7745355302402634,0.6565384412901154,-1.0,49,49,2,2,3.24,6.18,7.87,6.15,s01,0,1,0,50,49,0,3.8530571089869863,1.2353204037354173,-1.0,49,49,2,2,0,1,0,49,10,0,3.8417299345619433,1.7169248471327478,-1.0,49,49,2,2,0,0,0,49,49,0,3.863287699201099,0.0,-1.0,49,49,2,2,0,1,0,50,41,0,3.842988504348499,0.4246247609926523,-1.0,49,49,2,2,0,1,0,49,46,0,3.8831954037364094,0.9357599066196195,-1.0,49,49,2,2,0,0,0,49,0,0,3.8574289664346066,-1.0,-1.0,49,0,1,0,0,1,0,50,14,49,3.9020296920642847,2.3374493881045413,0.0,49,0,1,0,0,0,0,50,49,0,3.67588905704024,0.0,-1.0,49,49,2,2,0,0,0,50,0,0,3.7980261071405295,-1.0,-1.0,49,0,1,0,0,1,0,49,92,0,3.8861385223679616,0.7867616059238736,-1.0,49,49,2,2,0,1,0,49,86,0,3.8581780897457962,1.1947701795176777,-1.0,49,49,2,2,0,1,0,49,89,0,3.8862180770289343,1.08851069890508,-1.0,49,49,2,2,0,1,0,49,10,0,3.8478504653210703,1.811403598832861,-1.0,49,49,2,2
0,0,1,0,49,49,0,3.870310505952918,0.5771927864514074,-1.0,49,49,2,2,5.1,7.12,6.17,5.97,s01,0,1,0,49,39,0,3.8649898280984134,1.547625923670009,-1.0,49,49,2,2,0,1,0,49,92,0,3.8398556367808885,0.9939696671449816,-1.0,49,49,2,2,0,1,0,49,73,0,3.8529703204142396,0.8393353816949087,-1.0,49,49,2,2,0,1,0,49,79,0,3.9122135742327564,1.668267629042265,-1.0,49,49,2,2,0,2,0,49,68,0,3.9061077569663243,1.79061715880955,-1.0,49,49,2,2,0,0,0,50,49,0,3.8431579181335063,0.0,-1.0,49,49,2,2,0,0,0,49,49,0,3.9344266623697406,0.0,-1.0,49,49,2,2,0,1,0,49,62,0,3.893028610653343,2.069325487819048,-1.0,49,49,2,2,0,1,0,49,95,0,3.8256732980558352,1.1828802721200864,-1.0,49,49,2,2,0,1,0,49,61,0,3.8971972460989606,1.3660995046521998,-1.0,49,49,2,2,0,1,0,49,49,0,3.8312976675522834,1.2466920340790317,-1.0,49,49,2,2,0,1,0,49,80,0,3.944470370137003,2.047366729574924,-1.0,49,49,2,2,0,1,0,49,49,0,3.954467900978548,0.5627722841115171,-1.0,49,49,2,2
0,0,1,0,50,72,0,3.8149618778401226,1.2374769225268851,-1.0,49,49,2,2,9.0,5.03,7.13,6.62,s02,0,0,0,49,0,0,3.434765470700452,-1.0,-1.0,49,0,1,0,0,1,0,49,6,0,3.224305064976499,1.443129932554683,-1.0,49,49,2,2,0,1,0,50,19,0,3.860904693645184,1.504305725057343,-1.0,49,49,2,2,0,1,0,49,15,0,3.4986353582290723,0.9341443937934661,-1.0,49,49,2,2,0,1,0,49,26,49,3.9590018850240996,1.5103857092289756,0.0,49,0,1,0,0,1,0,49,35,0,3.600997565457642,1.5662641376158188,-1.0,49,49,2,2,0,1,0,49,49,49,3.289593585261505,0.4868305176885521,0.0,49,0,1,0,0,0,0,49,49,0,3.379947110594853,0.0,-1.0,49,49,2,2,0,1,0,49,68,0,3.6001620015940343,1.2636598027211858,-1.0,49,49,2,2,0,0,0,49,49,0,3.537149538303682,0.0,-1.0,49,49,2,2,0,0,0,50,0,0,3.3113963309862546,-1.0,-1.0,49,0,1,0,0,1,0,49,58,0,3.3702311650491605,0.8808816680701447,-1.0,49,49,2,2,0,0,0,49,50,0,3.361472330215125,0.0,-1.0,49,49,2,2
0,0,1,0,49,92,0,3.908431053235837,1.1024481350278927,-1.0,49,49,2,2,8.01,7.1,8.04,8.08,s02,0,0,0,50,0,0,3.6240091912182937,-1.0,-1.0,49,0,1,0,0,0,0,49,0,0,3.782974827879959,-1.0,-1.0,49,0,1,0,0,1,0,49,11,0,3.8770942885965995,1.541372626644632,-1.0,49,49,2,2,0,1,0,49,88,0,3.7641695493738863,0.14976922111477725,-1.0,49,49,2,2,0,1,0,49,92,0,3.875620456791256,1.1937015130954705,-1.0,49,49,2,2,0,0,0,49,0,0,3.876591528397517,-1.0,-1.0,49,0,1,0,0,1,0,49,39,0,2.7435864824496505,0.6764458141305166,-1.0,49,49,2,2,0,1,0,50,88,0,3.790167479522125,0.9027138363997806,-1.0,49,49,2,2,0,0,0,49,49,0,3.8758509816516464,0.0,-1.0,49,49,2,2,0,1,0,49,49,49,3.7313003523890793,0.28289654406311465,0.0,49,0,1,0,0,1,0,50,94,0,3.573832367034717,0.16506384622261658,-1.0,49,49,2,2,0,1,0,49,8,0,3.711293810894208,0.6884233296029749,-1.0,49,49,2,2,0,0,0,49,49,0,3.764121173213179,0.0,-1.0,49,49,2,2
0,0,1,0,49,67,0,3.7385631638208165,0.8157210455673866,-1.0,49,49,2,2,9.0,9.0,8.96,8.05,s02,0,0,0,49,49,0,3.491826679850031,0.0,-1.0,49,49,2,2,0,0,0,49,49,0,3.5135249874038506,0.0,-1.0,49,49,2,2,0,1,0,49,88,0,3.7818479099181364,0.7578740958809929,-1.0,49,49,2,2,0,0,0,49,0,0,3.5322939899561905,-1.0,-1.0,49,0,1,0,0,1,0,49,95,0,3.7720736056473103,1.4940037388148015,-1.0,49,49,2,2,0,1,0,50,10,0,3.739875016088044,0.8705920516573695,-1.0,49,49,2,2,0,0,0,50,49,0,3.3300055332440106,0.0,-1.0,49,49,2,2,0,0,0,50,0,0,3.5144403546932543,-1.0,-1.0,49,0,1,0,0,0,0,50,49,0,3.699195379559353,0.0,-1.0,49,49,2,2,0,0,0,49,49,0,3.497129985134688,0.0,-1.0,49,49,2,2,0,0,0,49,0,0,3.4451251618769394,-1.0,-1.0,49,0,1,0,0,0,0,49,0,0,3.4362145836849094,-1.0,-1.0,49,0,1,0,0,0,0,49,49,0,3.4888457279652685,0.0,-1.0,49,49,2,2
0,0,1,0,49,63,0,3.4982525107942846,0.8028446351896087,-1.0,49,49,2,2,6.05,1.0,5.04,7.03,s02,0,0,0,49,49,0,3.2488353963731877,0.0,-1.0,49,49,2,2,0,1,0,49,49,0,3.331159939464998,0.9820026427919647,-1.0,49,49,2,2,0,1,0,49,73,0,3.7250088844684925,0.9863762762476199,-1.0,49,49,2,2,0,0,0,49,0,0,3.197225757175568,-1.0,-1.0,49,0,1,0,0,1,0,49,79,0,3.8225726520608987,0.9871811275231331,-1.0,49,49,2,2,0,0,0,49,49,0,3.195791640146194,0.0,-1.0,49,49,2,2,0,1,0,49,12,0,3.577435852855823,0.9545358167105026,-1.0,49,49,2,2,0,0,0,49,0,0,3.200062000736185,-1.0,-1.0,49,0,1,0,0,1,0,50,18,0,3.2059683852158734,0.28564068689299454,-1.0,49,49,2,2,0,0,0,49,49,0,3.3983073987501586,0.0,-1.0,49,49,2,2,0,0,0,49,49,0,3.2766129869005045,0.0,-1.0,49,49,2,2,0,0,0,49,49,49,3.2337902409308565,0.0,0.0,49,0,1,0,0,0,0,50,0,0,3.192431557897503,-1.0,-1.0,49,0,1,0
0,0,1,0,49,89,0,3.826758823146521,0.5642727579805641,-1.0,49,49,2,2,5.04,3.0,3.65,5.04,s02,0,0,0,49,49,0,3.72972668297247,0.0,-1.0,49,49,2,2,0,0,0,49,0,0,3.661727610459223,-1.0,-1.0,49,0,1,0,0,1,0,49,85,0,3.911650123520167,1.552479990383533,-1.0,49,49,2,2,0,1,0,49,88,0,3.698904650435751,1.24309107826983,-1.0,49,49,2,2,0,1,0,49,49,49,3.881481764382639,1.0193562557048368,0.0,49,0,1,0,0,1,0,50,19,0,3.9105334339381495,0.9638816193622008,-1.0,49,49,2,2,0,0,0,49,49,0,3.8456526736435794,0.0,-1.0,49,49,2,2,0,1,0,49,78,0,3.7606821511275372,0.7901733833507718,-1.0,49,49,2,2,0,0,0,49,49,0,3.7937533324392,0.0,-1.0,49,49,2,2,0,0,0,50,49,0,3.6173290635745667,0.0,-1.0,49,49,2,2,0,0,0,49,0,0,3.6633373311237674,-1.0,-1.0,49,0,1,0,0,0,0,49,0,0,3.6939667618871708,-1.0,-1.0,49,0,1,0,0,0,0,49,49,0,3.6478837389116823,0.0,-1.0,49,49,2,2
0,0,0,0,49,0,0,3.797104179683267,-1.0,-1.0,49,0,1,0,5.0,4.94,5.04,1.01,s02,0,1,0,49,96,0,3.6261373019262195,0.5963079062969285,-1.0,49,49,2,2,0,1,0,49,73,0,3.7637051445863468,0.9982191246852992,-1.0,49,49,2,2,0,0,0,49,49,0,3.8635892077330944,0.0,-1.0,49,49,2,2,0,0,0,49,0,0,3.6612023601532044,-1.0,-1.0,49,0,1,0,0,1,0,50,82,0,3.912270246912516,1.1628882103632503,-1.0,49,49,2,2,0,1,0,49,33,0,3.8200737070706228,0.9688000128418228,-1.0,49,49,2,2,0,1,0,49,93,0,3.4122713076953217,0.4280999091393053,-1.0,49,49,2,2,0,0,0,49,49,0,3.70954766992991,0.0,-1.0,49,49,2,2,0,0,0,49,49,0,3.750878343792758,0.0,-1.0,49,49,2,2,0,1,0,49,5,49,3.65918898482648,0.7786008496697288,0.0,49,0,1,0,0,1,0,50,23,0,3.6807492295003503,0.5281704472073483,-1.0,49,49,2,2,0,0,0,50,49,0,3.6748660323196916,0.0,-1.0,49,49,2,2,0,0,0,49,0,0,3.6794326668060706,-1.0,-1.0,49,0,1,0
0,0,1,0,49,49,49,3.6912386208451977,0.3423746601681597,0.0,49,0,1,0,4.96,1.99,4.08,1.0,s02,0,0,0,50,49,0,3.6012611805488266,0.0,-1.0,49,49,2,2,0,1,0,49,24,0,3.750653983729627,0.7676593622471627,-1.0,49,49,2,2,0,1,0,49,92,0,3.807730822932678,0.9992148087317432,-1.0,49,49,2,2,0,1,0,49,82,0,3.6001924466488964,0.718077714680599,-1.0,49,49,2,2,0,1,0,49,6,49,3.917118698889087,1.4547786981078983,0.0,49,0,1,0,0,1,0,49,91,0,3.7529412755187828,1.3828777637461487,-1.0,49,49,2,2,0,1,0,49,49,49,3.824922057980542,1.3754606482147456,0.0,49,0,1,0,0,0,0,49,49,0,3.6498249278777553,0.0,-1.0,49,49,2,2,0,1,0,49,10,0,3.7061533308120285,0.9584808620751413,-1.0,49,49,2,2,0,1,0,50,76,0,3.6007480538615053,0.706916172765136,-1.0,49,49,2,2,0,0,0,49,0,0,3.551913552867178,-1.0,-1.0,49,0,1,0,0,1,0,50,4,0,3.6197951666207318,0.9487260448704065,-1.0,49,49,2,2,0,0,0,49,50,0,3.6254064585573396,0.0,-1.0,49,49,2,2
0,0,0,0,49,49,0,3.550708895672714,0.0,-1.0,49,49,2,2,9.0,9.0,9.0,9.0,s02,0,1,0,49,39,0,2.9491769408159207,0.9379368101471609,-1.0,49,49,2,2,0,1,0,50,45,0,3.2007336517014884,1.4562877159790637,-1.0,49,49,2,2,0,1,0,49,88,49,3.8014017838215266,0.9224484260514028,0.0,49,0,1,0,0,0,0,50,0,0,3.0397722562377374,-1.0,-1.0,49,0,1,0,0,0,0,49,49,0,3.71627501628378,0.0,-1.0,49,49,2,2,0,0,0,49,49,0,3.3620065938543138,0.0,-1.0,49,49,2,2,0,1,0,49,33,0,3.788970628397735,0.5749743630223114,-1.0,49,49,2,2,0,0,0,50,49,0,3.07267969772789,0.0,-1.0,49,49,2,2,0,0,0,49,49,0,3.236423384085468,0.0,-1.0,49,49,2,2,0,0,0,49,49,0,3.1466571610034313,0.0,-1.0,49,49,2,2,0,1,0,49,5,0,2.9477427221170784,0.9020186883437358,-1.0,49,49,2,2,0,1,0,49,38,0,3.0488540148675067,0.8764629654570706,-1.0,49,49,2,2,0,0,0,49,49,0,3.0154485904959074,0.0,-1.0,49,49,2,2
0,0,0,0,49,9,0,3.804978100158186,0.16838488843987917,-1.0,49,49,2,2,9.0,7.0,9.0,7.18,s02,0,1,0,49,76,0,3.706102267305134,1.527073106878904,-1.0,49,49,2,2,0,1,0,49,94,0,3.883877173753869,1.8975229608650959,-1.0,49,49,2,2,0,1,0,49,8,0,3.827898381207141,1.4776850416988287,-1.0,49,49,2,2,0,1,0,49,96,0,3.781978316509306,0.9629169012567703,-1.0,49,49,2,2,0,1,0,49,72,0,3.808051198932385,0.9668974832931311,-1.0,49,49,2,2,0,1,0,49,69,0,3.7606431389148605,0.8758466904409877,-1.0,49,49,2,2,0,1,0,50,17,0,3.8424629001337536,1.4389387708893489,-1.0,49,49,2,2,0,0,0,49,49,0,3.787529928282759,0.0,-1.0,49,49,2,2,0,1,0,49,21,0,3.8004130729307866,0.9573118967917454,-1.0,49,49,2,2,0,1,0,49,78,0,3.822128525003405,0.962856112022338,-1.0,49,49,2,2,0,0,0,49,49,0,3.748194805562896,0.0,-1.0,49,49,2,2,0,1,0,49,14,49,3.716901202932977,1.2814712683817429,0.0,49,0,1,0,0,0,0,50,49,0,3.824683307423408,0.0,-1.0,49,49,2,2
0,0,1,0,49,25,0,3.380507762326074,0.9549980174091721,-1.0,49,49,2,2,4.99,1.0,9.0,1.0,s02,0,0,0,49,49,0,3.0310585219124486,0.0,-1.0,49,49,2,2,0,0,0,49,50,0,2.9109727142960153,0.0,-1.0,49,49,2,2,0,1,0,50,49,0,3.704236504730273,1.8189878830512372,-1.0,49,49,2,2,0,1,0,49,43,0,3.043490612244357,0.8507390495909027,-1.0,49,49,2,2,0,0,0,49,49,0,3.8609526866410717,0.0,-1.0,49,49,2,2,0,0,0,50,49,0,3.239282220303377,0.0,-1.0,49,49,2,2,0,1,0,49,94,0,3.1333257148645384,0.5731687105509106,-1.0,49,49,2,2,0,0,0,50,0,0,2.902006950630191,-1.0,-1.0,49,0,1,0,0,1,0,49,49,0,3.1195813271687483,0.8735502778248336,-1.0,49,49,2,2,0,0,0,49,49,0,3.302537552029916,0.0,-1.0,49,49,2,2,0,1,0,49,49,0,3.0277085536849775,0.960746884645891,-1.0,49,49,2,2,0,0,0,50,49,0,2.9448352892235308,0.0,-1.0,49,49,2,2,0,1,0,49,49,0,2.9167421270241927,0.8463013976985448,-1.0,49,49,2,2
0,0,1,0,49,90,0,3.6218759016167703,1.5720509064138064,-1.0,49,49,2,2,7.08,1.0,7.01,7.0,s02,0,0,0,50,0,0,3.4825045127348084,-1.0,-1.0,49,0,1,0,0,1,0,49,26,0,3.544749235041541,0.8838028402453687,-1.0,49,49,2,2,0,1,0,50,41,0,3.850862978794625,0.7575326267439392,-1.0,49,49,2,2,0,0,0,49,49,0,3.492560580867417,0.0,-1.0,49,49,2,2,0,0,0,49,49,0,3.762336931007464,0.0,-1.0,49,49,2,2,0,0,0,49,0,0,3.5725135955956007,-1.0,-1.0,49,0,1,0,0,1,0,50,17,0,3.8139047639876074,1.9129489549637817,-1.0,49,49,2,2,0,0,0,50,49,0,3.4809523826512154,0.0,-1.0,49,49,2,2,0,0,0,49,49,0,3.502687182658928,0.0,-1.0,49,49,2,2,0,0,0,49,49,0,3.6346170688923367,0.0,-1.0,49,49,2,2,0,0,0,49,49,0,3.5334148144713216,0.0,-1.0,49,49,2,2,0,0,0,49,49,0,3.5006877991761454,0.0,-1.0,49,49,2,2,0,0,0,49,49,0,3.538208208520443,0.0,-1.0,49,49,2,2
0,0,1,0,49,60,0,3.8208337316454943,0.9026713303434295,-1.0,49,49,2,2,8.01,6.06,7.12,9.0,s02,0,1,0,50,16,49,3.572828413087663,0.5722885401213058,0.0,49,0,1,0,0,1,0,49,59,0,3.684385769856762,1.702655768578637,-1.0,49,49,2,2,0,1,0,49,45,0,3.867492129030536,1.4534916614033195,-1.0,49,49,2,2,0,0,0,49,49,0,3.5993127629237645,0.0,-1.0,49,49,2,2,0,1,0,49,87,0,3.794378267295357,1.8224397036864064,-1.0,49,49,2,2,0,0,0,49,49,0,3.670204622443817,0.0,-1.0,49,49,2,2,0,1,0,50,81,0,3.881026007600443,0.8064997045718183,-1.0,49,49,2,2,0,1,0,49,24,0,3.572856827621987,0.9824878885220923,-1.0,49,49,2,2,0,1,0,49,79,0,3.601705539744461,0.9864075148612935,-1.0,49,49,2,2,0,0,0,50,49,0,3.7470301725388104,0.0,-1.0,49,49,2,2,0,1,0,49,29,0,3.5590585802630166,0.6458149053854405,-1.0,49,49,2,2,0,1,0,49,31,49,3.6090739657577102,1.733555236309828,0.0,49,0,1,0,0,1,0,49,29,0,3.5930299460017774,0.9542812682223692,-1.0,49,49,2,2
0,0,1,0,49,49,0,3.5907598812153276,0.9411793613419902,-1.0,49,49,2,2,9.0,4.99,9.0,9.0,s02,0,1,0,49,22,0,3.6259086717967817,0.7296924379924461,-1.0,49,49,2,2,0,1,0,50,95,0,3.560370100087463,1.1689773130731942,-1.0,49,49,2,2,0,0,0,49,49,0,3.842672403132186,0.0,-1.0,49,49,2,2,0,1,0,49,6,0,3.6389614710931983,0.8811347160849239,-1.0,49,49,2,2,0,1,0,49,10,49,3.9052426687131403,1.9228993124641127,0.0,49,0,1,0,0,0,0,50,49,0,3.6147344635843144,0.0,-1.0,49,49,2,2,0,0,0,50,49,0,3.826542258366792,0.0,-1.0,49,49,2,2,0,1,0,49,2,0,3.608835348856072,1.797723501627649,-1.0,49,49,2,2,0,0,0,50,0,0,3.657921689117522,-1.0,-1.0,49,0,1,0,0,1,0,49,26,0,3.7248499811646694,1.4241267999484284,-1.0,49,49,2,2,0,1,0,49,97,0,3.6014949171970936,0.21191961068346485,-1.0,49,49,2,2,0,1,0,49,94,0,3.512808393630086,1.4565896438334964,-1.0,49,49,2,2,0,0,0,49,49,0,3.620207552541175,0.0,-1.0,49,49,2,2
0,0,1,0,49,30,0,3.7114848764766064,1.9168453414782185,-1.0,49,49,2,2,8.94,9.0,8.97,9.0,s02,0,1,0,49,71,49,3.7154597057962206,1.173718706079368,0.0,49,0,1,0,0,1,0,50,94,0,3.5234801085449936,0.756966578910325,-1.0,49,49,2,2,0,1,0,49,31,0,3.6308457364945363,0.5142617390631306,-1.0,49,49,2,2,0,0,0,49,49,0,3.5641552620847508,0.0,-1.0,49,49,2,2,0,1,0,49,4,0,3.8672297837997367,0.6668191524202387,-1.0,49,49,2,2,0,0,0,49,0,0,3.6678922070672977,-1.0,-1.0,49,0,1,0,0,0,0,49,49,0,3.174053751501533,0.0,-1.0,49,49,2,2,0,1,0,49,49,0,3.639273417328171,0.7470081924738443,-1.0,49,49,2,2,0,0,0,50,49,0,3.6785003782034127,0.0,-1.0,49,49,2,2,0,0,0,49,0,0,3.5793300084816804,-1.0,-1.0,49,0,1,0,0,1,0,49,58,49,3.6342729914149214,0.9984550193973527,0.0,49,0,1,0,0,1,0,49,36,0,3.694189341402451,1.242298894708494,-1.0,49,49,2,2,0,0,0,50,49,0,3.5716931134627776,0.0,-1.0,49,49,2,2
0,0,1,0,49,12,0,3.7155347883862344,1.3012005571892438,-1.0,49,49,2,2,9.0,8.01,8.06,9.0,s02,0,1,0,49,88,0,3.558548272367796,1.1402513494674713,-1.0,49,49,2,2,0,0,0,50,0,0,3.6440952754584455,-1.0,-1.0,49,0,1,0,0,0,0,49,0,0,3.7673049071904354,-1.0,-1.0,49,0,1,0,0,1,0,49,5,0,3.563182697777245,0.9619239637063395,-1.0,49,49,2,2,0,1,0,49,36,0,3.8580075685210495,2.1151651616366407,-1.0,49,49,2,2,0,1,0,49,54,0,3.6353159303806,1.9168165855120867,-1.0,49,49,2,2,0,0,0,49,0,0,3.9135746517768717,-1.0,-1.0,49,0,1,0,0,1,0,50,89,0,3.563850443613581,1.567018632227817,-1.0,49,49,2,2,0,0,0,50,0,0,3.6067716082343373,-1.0,-1.0,49,0,1,0,0,0,0,49,49,0,3.509539478183672,0.0,-1.0,49,49,2,2,0,1,0,49,81,0,3.572131262579128,1.3037080830630516,-1.0,49,49,2,2,0,1,0,49,94,0,3.5715109237618554,1.379142672623555,-1.0,49,49,2,2,0,1,0,49,89,0,3.5700126726519854,0.7538162153754215,-1.0,49,49,2,2
0,0,1,0,49,9,0,3.6939555399689454,0.6991981447293895,-1.0,49,49,2,2,6.0,5.05,8.05,6.14,s02,0,0,0,49,49,0,3.5890280709712656,0.0,-1.0,49,49,2,2,0,1,0,49,83,0,3.4803605704578353,0.9786183657478411,-1.0,49,49,2,2,0,1,0,49,32,49,3.9150286181422334,1.4816258233602708,0.0,49,0,1,0,0,1,0,49,2,0,3.525323619961846,0.9999850278387403,-1.0,49,49,2,2,0,0,0,50,49,0,3.7357764954260237,0.0,-1.0,49,49,2,2,0,0,0,49,49,0,3.6306858600078633,0.0,-1.0,49,49,2,2,0,1,0,49,8,0,3.4975120884515736,0.9997717604341586,-1.0,49,49,2,2,0,1,0,50,93,0,3.5612099416042375,1.5152470105446485,-1.0,49,49,2,2,0,1,0,50,90,0,3.620618886725996,1.1770824857104596,-1.0,49,49,2,2,0,0,0,49,0,0,3.555910806629429,-1.0,-1.0,49,0,1,0,0,0,0,49,0,0,3.5284961606500516,-1.0,-1.0,49,0,1,0,0,1,0,49,84,0,3.5412043796451016,0.34979696635342256,-1.0,49,49,2,2,0,1,0,49,58,0,3.5695874670028402,0.9865536443194447,-1.0,49,49,2,2
0,0,0,0,50,49,0,3.404423440517444,0.0,-1.0,49,49,2,2,9.0,3.0,6.03,7.41,s02,0,1,0,49,74,0,3.4203670578487104,0.9775488474823606,-1.0,49,49,2,2,0,1,0,49,88,0,3.4074833511866065,1.2858998490182065,-1.0,49,49,2,2,0,1,0,50,80,0,3.673658439020164,0.9165251588712482,-1.0,49,49,2,2,0,1,0,49,69,0,3.419875571575111,0.3913739128233258,-1.0,49,49,2,2,0,0,0,49,49,0,3.6963703927656115,0.0,-1.0,49,49,2,2,0,0,0,49,0,0,3.4914094229226844,-1.0,-1.0,49,0,1,0,0,0,0,50,49,0,3.2344545915114935,0.0,-1.0,49,49,2,2,0,1,0,49,92,0,3.446296495765935,0.28897935905423583,-1.0,49,49,2,2,0,0,0,49,49,0,3.501045674262467,0.0,-1.0,49,49,2,2,0,1,0,49,16,0,3.461953058717451,0.9999812594007045,-1.0,49,49,2,2,0,1,0,49,80,0,3.383153144118547,1.4341198243713784,-1.0,49,49,2,2,0,1,0,49,85,0,3.408517126249671,1.2811901056164792,-1.0,49,49,2,2,0,1,0,49,72,0,3.38068033940691,0.8437213570319143,-1.0,49,49,2,2
0,0,0,0,49,49,0,3.77924748556037,0.0,-1.0,49,49,2,2,9.0,6.15,9.0,8.08,s02,0,1,0,49,49,0,3.7468870963925296,0.5481087773247233,-1.0,49,49,2,2,0,0,0,50,49,0,3.750613774985549,0.0,-1.0,49,49,2,2,0,1,0,49,80,0,3.803358396775574,1.7334414988542912,-1.0,49,49,2,2,0,1,0,49,34,0,3.7447718382303843,0.2455771860018321,-1.0,49,49,2,2,0,1,0,50,8,0,3.8641950361628292,1.5207072534800676,-1.0,49,49,2,2,0,0,0,49,49,0,3.831907992955811,0.0,-1.0,49,49,2,2,0,0,0,49,49,0,2.935731068313143,0.0,-1.0,49,49,2,2,0,1,0,50,7,0,3.76580078408355,0.7149554341387275,-1.0,49,49,2,2,0,1,0,49,86,0,3.820298273100439,1.5196502986799179,-1.0,49,49,2,2,0,1,0,49,31,0,3.7262072656816096,0.9972292840545964,-1.0,49,49,2,2,0,0,0,49,49,0,3.714305872839816,0.0,-1.0,49,49,2,2,0,0,0,50,49,0,3.732613121277402,0.0,-1.0,49,49,2,2,0,0,0,49,49,0,3.7298812203359546,0.0,-1.0,49,49,2,2
0,0,0,0,49,49,0,3.6934043382968875,0.0,-1.0,49,49,2,2,9.0,8.32,8.06,6.99,s02,0,0,0,49,0,0,3.5414938961500213,-1.0,-1.0,49,0,1,0,0,0,0,49,0,0,3.4743040627608703,-1.0,-1.0,49,0,1,0,0,1,0,49,77,0,3.7082713104384073,0.5096293947752362,-1.0,49,49,2,2,0,1,0,49,82,0,3.531922672727869,0.9988430989417544,-1.0,49,49,2,2,0,1,0,50,62,0,3.521086216670582,0.5004102544263022,-1.0,49,49,2,2,0,0,0,50,49,0,3.6242035240934247,0.0,-1.0,49,49,2,2,0,1,0,49,49,0,3.7939704750488645,0.9624128178977306,-1.0,49,49,2,2,0,0,0,49,49,0,3.474131464576345,0.0,-1.0,49,49,2,2,0,0,0,50,0,0,3.442426618647057,-1.0,-1.0,49,0,1,0,0,0,0,50,49,0,3.6068558378976876,0.0,-1.0,49,49,2,2,0,0,0,50,49,0,3.536761790836088,0.0,-1.0,49,49,2,2,0,0,0,49,49,0,3.5235952439822995,0.0,-1.0,49,49,2,2,0,0,0,49,50,0,3.5338821923717756,0.0,-1.0,49,49,2,2
0,0,1,0,49,80,0,3.895783442364518,1.5447546907819674,-1.0,49,49,2,2,8.97,9.0,8.03,9.0,s02,0,0,0,49,49,0,3.7997258767694997,0.0,-1.0,49,49,2,2,0,1,0,49,34,0,3.8989366939988868,0.7303129137774865,-1.0,49,49,2,2,0,0,0,50,0,0,3.8744650291394236,-1.0,-1.0,49,0,1,0,0,0,0,49,49,0,3.8079229680877544,0.0,-1.0,49,49,2,2,0,1,0,49,49,49,3.9248413191922435,0.8312510973006411,0.0,49,0,1,0,0,0,0,49,0,0,3.776415853145043,-1.0,-1.0,49,0,1,0,0,0,0,49,49,0,3.6363916332050112,0.0,-1.0,49,49,2,2,0,0,0,49,49,0,3.7709071327361547,0.0,-1.0,49,49,2,2,0,0,0,49,49,0,3.8601263484050237,0.0,-1.0,49,49,2,2,0,1,0,49,49,0,3.787485519756759,0.4435542360600835,-1.0,49,49,2,2,0,1,0,49,95,0,3.787033223494694,1.40387994405961,-1.0,49,49,2,2,0,0,0,49,49,0,3.7793160686691722,0.0,-1.0,49,49,2,2,0,0,0,49,49,0,3.7896525358967534,0.0,-1.0,49,49,2,2
0,0,0,0,49,49,0,3.7552702323630154,0.0,-1.0,49,49,2,2,1.0,1.0,5.04,1.0,s02,0,0,0,49,49,0,3.671703589428559,0.0,-1.0,49,49,2,2,0,0,0,49,6,0,3.6634984929423253,0.24185610748977335,-1.0,49,49,2,2,0,1,0,50,49,0,3.848892586881486,0.32038751691665485,-1.0,49,49,2,2,0,0,0,49,49,0,3.683602988270994,0.0,-1.0,49,49,2,2,0,0,0,49,49,0,3.8334922331726053,0.0,-1.0,49,49,2,2,0,1,0,49,92,0,3.6761557552332302,0.8014861723213538,-1.0,49,49,2,2,0,1,0,49,49,0,3.7306897861026194,0.7923283543218893,-1.0,49,49,2,2,0,1,0,49,94,0,3.5825938935805675,0.9989576389194599,-1.0,49,49,2,2,0,0,0,49,0,0,3.6761568806507414,0.9277489577696164,-1.0,49,49,2,2,0,0,0,49,0,0,3.7760861887459156,-1.0,-1.0,49,0,1,0,0,1,0,49,96,0,3.605979456218125,0.7278405828171778,-1.0,49,49,2,2,0,1,0,50,95,0,3.590217342031424,0.5259461744280096,-1.0,49,49,2,2,0,0,0,49,49,0,3.6601021295591125,0.0,-1.0,49,49,2,2
0,0,1,0,49,76,0,3.62106114161636,0.7573150251043891,-1.0,49,49,2,2,5.0,1.0,4.97,5.0,s02,0,0,0,49,49,0,3.522744206092198,0.0,-1.0,49,49,2,2,0,1,0,49,2,0,3.6414785821139968,0.9893902365206236,-1.0,49,49,2,2,0,1,0,49,10,0,3.886505597376337,0.9999903525544118,-1.0,49,49,2,2,0,0,0,49,49,0,3.545868185273864,0.0,-1.0,49,49,2,2,0,1,0,49,63,0,3.925274674906483,1.5279095995475906,-1.0,49,49,2,2,0,0,0,49,49,0,3.5754171236585135,0.0,-1.0,49,49,2,2,0,0,0,49,49,0,3.1919501008246147,0.0,-1.0,49,49,2,2,0,0,0,50,0,0,3.54209693951439,-1.0,-1.0,49,0,1,0,0,0,0,49,49,0,3.5391672746714407,0.0,-1.0,49,49,2,2,0,0,0,49,0,0,3.506659342888662,-1.0,-1.0,49,0,1,0,0,0,0,49,0,0,3.5949412909097958,-1.0,-1.0,49,0,1,0,0,0,0,49,0,0,3.553917946491431,-1.0,-1.0,49,0,1,0,0,0,0,49,49,0,3.5781694525534795,0.0,-1.0,49,49,2,2
0,0,1,0,49,24,0,3.8904080662174434,1.503791985358126,-1.0,49,49,2,2,1.0,2.97,1.0,7.82,s02,0,1,0,49,24,0,3.850672194454407,1.379973044608963,-1.0,49,49,2,2,0,1,0,49,88,0,3.8634091394939656,1.9743697803082947,-1.0,49,49,2,2,0,1,0,50,77,0,3.8655570859530064,0.992290821376364,-1.0,49,49,2,2,0,1,0,49,64,49,3.8210153196049883,2.2627942155458114,0.0,49,0,1,0,0,1,0,49,32,0,3.9159580450135385,1.4061179133667963,-1.0,49,49,2,2,0,1,0,50,50,0,3.7977161630037792,0.4660089293288569,-1.0,49,49,2,2,0,0,0,50,49,0,3.7444392139651823,0.0,-1.0,49,49,2,2,0,1,0,49,78,0,3.879189930234505,1.386291448616493,-1.0,49,49,2,2,0,0,0,49,49,0,3.840906579530187,0.0,-1.0,49,49,2,2,0,1,0,49,31,0,3.9150990817353613,1.0118194310163424,-1.0,49,49,2,2,0,1,0,50,49,0,3.9454702277909544,0.343416357422049,-1.0,49,49,2,2,0,1,0,49,73,0,3.929631300713042,1.51464826672569,-1.0,49,49,2,2,0,1,0,49,49,0,3.784017490675424,0.7439241240300131,-1.0,49,49,2,2
0,0,1,0,49,12,0,3.794490735782836,0.6766768898371007,-1.0,49,49,2,2,7.08,9.0,6.06,9.0,s02,0,1,0,49,49,0,3.5709535001419686,1.0989923075306192,-1.0,49,49,2,2,0,1,0,49,96,0,3.481125210640445,0.8250241506294358,-1.0,49,49,2,2,0,1,0,50,90,0,3.74230084525163,0.8757608556554111,-1.0,49,49,2,2,0,0,0,50,0,0,3.4627372970983177,-1.0,-1.0,49,0,1,0,0,1,0,49,74,0,3.94359456402418,1.683640342603284,-1.0,49,49,2,2,0,1,0,49,57,0,3.6728857616540123,1.1188755600112061,-1.0,49,49,2,2,0,0,0,50,0,0,3.71993566121968,-1.0,-1.0,49,0,1,0,0,1,0,49,82,0,3.5592086169394466,0.9816811498440058,-1.0,49,49,2,2,0,1,0,50,49,0,3.590096381937866,1.1560077751932603,-1.0,49,49,2,2,0,0,0,49,0,0,3.513038989860945,-1.0,-1.0,49,0,1,0,0,0,0,50,0,0,3.473708036704813,-1.0,-1.0,49,0,1,0,0,0,0,49,0,0,3.5124621935013605,-1.0,-1.0,49,0,1,0,0,1,0,49,96,0,3.3991150408674633,0.3064572437416571,-1.0,49,49,2,2
0,0,0,0,49,50,0,3.7585734997798417,0.0,-1.0,49,49,2,2,9.0,9.0,8.1,9.0,s02,0,1,0,50,22,0,3.6882068346670107,0.8487836708484151,-1.0,49,49,2,2,0,0,0,49,49,0,3.624835680447955,0.0,-1.0,49,49,2,2,0,1,0,50,94,0,3.859076911432558,1.5668976229857334,-1.0,49,49,2,2,0,1,0,49,79,0,3.5951228047383066,0.3962307831790995,-1.0,49,49,2,2,0,0,0,49,49,0,3.9040224721332435,0.0,-1.0,49,49,2,2,0,1,0,50,49,0,3.71940325457537,0.9860606181454076,-1.0,49,49,2,2,0,1,0,49,94,0,3.6296332086651404,0.007606094771616684,-1.0,49,49,2,2,0,1,0,49,79,0,3.6578857157374283,0.9922960400424765,-1.0,49,49,2,2,0,1,0,50,74,0,3.7197204425264476,0.6065924930899953,-1.0,49,49,2,2,0,1,0,49,44,0,3.6061316131729,0.9321967318806337,-1.0,49,49,2,2,0,0,0,50,49,0,3.617659626204148,0.0,-1.0,49,49,2,2,0,1,0,49,76,0,3.6585675310323804,0.7843562897520253,-1.0,49,49,2,2,0,0,0,49,49,0,3.581894078764426,0.0,-1.0,49,49,2,2
0,0,1,0,49,47,49,3.6742314151402544,0.845582609415021,0.0,49,0,1,0,9.0,8.04,9.0,9.0,s02,0,1,0,49,77,0,3.640101063783547,0.3623088573630742,-1.0,49,49,2,2,0,1,0,50,71,0,3.6389794601698497,1.333628539038346,-1.0,49,49,2,2,0,1,0,49,44,0,3.6078750036589264,0.9840456490926295,-1.0,49,49,2,2,0,1,0,50,83,0,3.6320968612021396,0.6653385833993901,-1.0,49,49,2,2,0,1,0,50,49,0,3.719384044487552,0.6203109561836883,-1.0,49,49,2,2,0,1,0,49,49,0,3.6181525172219966,0.8962046897206883,-1.0,49,49,2,2,0,1,0,49,8,0,3.7356549005701196,0.5380132666546059,-1.0,49,49,2,2,0,1,0,50,74,0,3.6381624994681867,0.504997618305747,-1.0,49,49,2,2,0,1,0,49,36,0,3.6285128427549185,0.9350849806172078,-1.0,49,49,2,2,0,1,0,49,92,0,3.6599247536375628,0.7640283845657083,-1.0,49,49,2,2,0,0,0,49,49,0,3.6423802947100263,0.0,-1.0,49,49,2,2,0,0,0,49,50,0,3.6339148129974572,0.0,-1.0,49,49,2,2,0,1,0,49,79,0,3.624394678055205,0.7546245286702702,-1.0,49,49,2,2
0,0,0,0,50,0,0,3.834406307159701,-1.0,-1.0,49,0,1,0,4.96,5.01,3.01,5.05,s02,0,1,0,49,49,0,3.579617123892079,0.9972909329043321,-1.0,49,49,2,2,0,1,0,49,93,0,3.661514385869748,0.6597935363935992,-1.0,49,49,2,2,0,0,0,50,0,0,3.8975233338548336,-1.0,-1.0,49,0,1,0,0,1,0,50,49,0,3.648422368208631,0.9770228634389155,-1.0,49,49,2,2,0,1,0,49,76,0,3.818938405548735,1.843168036906255,-1.0,49,49,2,2,0,0,0,49,49,0,3.693368023886408,0.0,-1.0,49,49,2,2,0,0,0,49,49,0,3.4218491936052375,0.0,-1.0,49,49,2,2,0,1,0,50,49,0,3.6469560403382846,0.9965354500933783,-1.0,49,49,2,2,0,0,0,50,0,0,3.6470482157803223,-1.0,-1.0,49,0,1,0,0,1,0,49,14,0,3.7476885615595528,0.9984034226729308,-1.0,49,49,2,2,0,0,0,49,49,0,3.570386735766891,0.0,-1.0,49,49,2,2,0,0,0,50,0,0,3.596915106307897,-1.0,-1.0,49,0,1,0,0,0,0,49,1,0,3.628180596867108,0.5812560259788728,-1.0,49,49,2,2
0,0,1,0,49,85,0,3.7341997952500807,0.5490514572934708,-1.0,49,49,2,2,4.06,4.97,7.14,7.04,s02,0,0,0,49,0,0,3.4054889264410275,-1.0,-1.0,49,0,1,0,0,1,0,50,13,0,3.491032262628106,1.4230219752134134,-1.0,49,49,2,2,0,0,0,49,49,0,3.5612276332537856,0.0,-1.0,49,49,2,2,0,0,0,49,49,0,3.4316710563102637,0.0,-1.0,49,49,2,2,0,1,0,49,23,0,3.8242910802542127,1.2655716072022183,-1.0,49,49,2,2,0,1,0,49,70,0,3.349092107474383,0.9769746250765418,-1.0,49,49,2,2,0,0,0,49,0,0,3.4231935567215683,-1.0,-1.0,49,0,1,0,0,1,0,50,96,0,3.389059284081114,0.9838971183542835,-1.0,49,49,2,2,0,0,0,49,49,0,3.335404378146236,0.0,-1.0,49,49,2,2,0,1,0,49,21,0,3.498183480814967,0.8909646556477341,-1.0,49,49,2,2,0,1,0,49,90,0,3.4358097518674495,0.8922377581390396,-1.0,49,49,2,2,0,1,0,49,82,0,3.425494947735924,0.9838262832685625,-1.0,49,49,2,2,0,1,0,49,6,0,3.4464319192344752,0.9854581674778041,-1.0,49,49,2,2
0,0,0,0,49,49,0,3.6875968083833173,0.0,-1.0,49,49,2,2,2.99,7.04,7.03,9.0,s02,0,0,0,50,0,0,3.660963975083202,-1.0,-1.0,49,0,1,0,0,0,0,49,0,0,3.634947507878032,-1.0,-1.0,49,0,1,0,0,1,0,49,49,0,3.8894530680228807,1.134117485489774,-1.0,49,49,2,2,0,0,0,49,49,0,3.596113289594753,0.0,-1.0,49,49,2,2,0,0,0,50,49,0,3.8461761936940393,0.0,-1.0,49,49,2,2,0,0,0,49,0,0,3.7096902759957917,-1.0,-1.0,49,0,1,0,0,1,0,49,80,0,3.68765408551873,1.173343879016728,-1.0,49,49,2,2,0,0,0,50,0,0,3.655827395838327,-1.0,-1.0,49,0,1,0,0,0,0,50,0,0,3.700097225270283,-1.0,-1.0,49,0,1,0,0,0,0,49,0,0,3.604195680165601,-1.0,-1.0,49,0,1,0,0,0,0,49,49,0,3.6546465897054397,0.0,-1.0,49,49,2,2,0,1,0,49,95,0,3.635023368239806,0.610409651893728,-1.0,49,49,2,2,0,0,0,49,49,0,3.6092792121578436,0.0,-1.0,49,49,2,2
0,0,0,0,49,0,0,3.793645352836071,-1.0,-1.0,49,0,1,0,2.01,7.05,1.0,7.13,s02,0,1,0,50,6,0,3.783931956392034,1.579456982946914,-1.0,49,49,2,2,0,0,0,49,0,0,3.6882323489630235,-1.0,-1.0,49,0,1,0,0,1,0,49,53,0,3.7624668057378283,1.0174960763388052,-1.0,49,49,2,2,0,0,0,49,49,0,3.78475765660338,0.0,-1.0,49,49,2,2,0,1,0,49,9,0,3.876745316570207,0.6017423371123375,-1.0,49,49,2,2,0,0,0,50,49,0,3.833138304994556,0.0,-1.0,49,49,2,2,0,0,0,49,0,0,3.391483561196972,-1.0,-1.0,49,0,1,0,0,1,0,49,30,0,3.7840412917204835,0.7601619235417217,-1.0,49,49,2,2,0,1,0,49,49,0,3.8135610893099723,0.9933236741115916,-1.0,49,49,2,2,0,0,0,50,49,0,3.7258734110592817,0.0,-1.0,49,49,2,2,0,0,0,50,49,0,3.7581341314565004,0.0,-1.0,49,49,2,2,0,0,0,49,49,0,3.789011389623193,0.0,-1.0,49,49,2,2,0,0,0,49,49,0,3.7134264556670655,0.0,-1.0,49,49,2,2
0,0,0,0,49,0,0,3.5057152061728774,-1.0,-1.0,49,0,1,0,4.06,7.05,1.0,9.0,s02,0,0,0,50,49,0,3.3681831851164903,0.0,-1.0,49,49,2,2,0,0,0,50,0,0,3.3780721106947733,-1.0,-1.0,49,0,1,0,0,1,0,49,5,0,3.8493934747424614,1.5533554438580517,-1.0,49,49,2,2,0,0,0,49,0,0,3.381602577424135,-1.0,-1.0,49,0,1,0,0,0,0,50,49,0,3.8390971658629343,0.0,-1.0,49,49,2,2,0,1,0,49,49,49,3.46002146184429,0.978500205925924,0.0,49,0,1,0,0,0,0,49,0,0,3.6380203329942318,-1.0,-1.0,49,0,1,0,0,0,0,49,49,0,3.3666966695605907,0.0,-1.0,49,49,2,2,0,0,0,49,49,0,3.4646983931528985,0.0,-1.0,49,49,2,2,0,0,0,49,49,0,3.478745853873688,0.0,-1.0,49,49,2,2,0,0,0,49,49,0,3.3690978237655953,0.0,-1.0,49,49,2,2,0,0,0,49,49,0,3.3490400837709022,0.0,-1.0,49,49,2,2,0,0,0,50,49,0,3.363266236950556,0.0,-1.0,49,49,2,2
0,0,1,0,50,52,0,3.7678113083700127,1.4774576019160242,-1.0,49,49,2,2,1.0,9.0,2.01,1.0,s02,0,1,0,50,96,0,3.6404495271169086,0.12683806531714223,-1.0,49,49,2,2,0,1,0,49,85,0,3.665463950606288,1.266108636441421,-1.0,49,49,2,2,0,1,0,49,59,0,3.923826561458764,1.2980019578867288,-1.0,49,49,2,2,0,0,0,49,49,0,3.6559991456669807,0.0,-1.0,49,49,2,2,0,0,0,49,49,0,3.754571870375272,0.0,-1.0,49,49,2,2,0,1,0,50,49,0,3.744810839721487,0.9736602990592076,-1.0,49,49,2,2,0,0,0,49,49,0,3.7815992975606982,0.0,-1.0,49,49,2,2,0,0,0,49,49,0,3.683811912532664,0.0,-1.0,49,49,2,2,0,1,0,49,10,0,3.722505660611447,1.5605590708753307,-1.0,49,49,2,2,0,0,0,50,49,0,3.4718324819021813,0.0,-1.0,49,49,2,2,0,0,0,49,49,0,3.637331989118567,0.0,-1.0,49,49,2,2,0,0,0,50,49,0,3.6919316401007785,0.0,-1.0,49,49,2,2,0,0,0,49,49,49,3.6326163711570154,0.0,0.0,49,0,1,0
0,0,1,0,49,42,0,3.8393242097976996,0.10839925455687069,-1.0,49,49,2,2,5.0,8.03,3.01,1.0,s02,0,0,0,49,49,0,3.7298768943340765,0.0,-1.0,49,49,2,2,0,1,0,49,97,0,3.807989330576189,0.9641604836636268,-1.0,49,49,2,2,0,1,0,49,91,0,3.7572021651250562,1.3938237475320565,-1.0,49,49,2,2,0,0,0,49,49,0,3.6892089762932843,0.0,-1.0,49,49,2,2,0,0,0,49,49,0,3.778377480803638,0.0,-1.0,49,49,2,2,0,1,0,49,93,0,3.7542824405679966,0.9978873732109494,-1.0,49,49,2,2,0,1,0,49,63,0,3.7166401728474536,0.724007875787575,-1.0,49,49,2,2,0,1,0,49,97,0,3.7536237743870107,0.9861667784564075,-1.0,49,49,2,2,0,0,0,49,49,0,3.7603151917828708,0.0,-1.0,49,49,2,2,0,1,0,49,97,0,3.699876219011917,1.4748582294090131,-1.0,49,49,2,2,0,1,0,50,86,0,3.7886661896572735,0.10301454490346455,-1.0,49,49,2,2,0,1,0,50,88,0,3.764586682459611,0.849542367604492,-1.0,49,49,2,2,0,0,0,49,49,0,3.7226373643729564,0.0,-1.0,49,49,2,2
0,0,1,0,49,8,0,3.7708216122060456,1.349770669785886,-1.0,49,49,2,2,4.87,1.0,6.99,1.0,s02,0,1,0,50,38,49,3.6997139331712137,1.1671372623922835,0.0,49,0,1,0,0,1,0,49,28,0,3.599816964386968,0.8161479629047851,-1.0,49,49,2,2,0,0,0,49,49,0,3.8778098937979695,0.0,-1.0,49,49,2,2,0,0,0,49,49,0,3.596125898924819,0.0,-1.0,49,49,2,2,0,1,0,49,72,0,3.9229164623568926,1.3899272629945116,-1.0,49,49,2,2,0,0,0,49,50,0,3.568637409486046,0.0,-1.0,49,49,2,2,0,0,0,49,49,0,3.516308009294667,0.0,-1.0,49,49,2,2,0,1,0,49,11,0,3.5595907592389238,0.9080936328554345,-1.0,49,49,2,2,0,0,0,50,0,0,3.540725714913082,-1.0,-1.0,49,0,1,0,0,0,0,49,0,0,3.6606059660399013,-1.0,-1.0,49,0,1,0,0,0,0,49,49,0,3.610625877062738,0.0,-1.0,49,49,2,2,0,1,0,49,86,0,3.6170710570886744,0.9899212041672745,-1.0,49,49,2,2,0,1,0,49,68,0,3.674413121412163,0.263548512636744,-1.0,49,49,2,2
0,0,1,0,50,36,0,3.8110688313717724,0.976953988256637,-1.0,49,49,2,2,1.99,2.0,1.0,1.0,s02,0,1,0,50,86,0,3.760222848623081,0.1156268320727677,-1.0,49,49,2,2,0,0,0,49,49,0,3.7513274592935604,0.0,-1.0,49,49,2,2,0,1,0,49,73,0,3.7086584393613307,1.285438137495317,-1.0,49,49,2,2,0,1,0,49,25,0,3.8085935481891755,0.95120017503597,-1.0,49,49,2,2,0,1,0,49,46,0,3.7942540922163333,1.8411692595796227,-1.0,49,49,2,2,0,0,0,49,0,0,3.7541705305921473,-1.0,-1.0,49,0,1,0,0,1,0,49,49,0,3.4991144214773886,0.5503049449521905,-1.0,49,49,2,2,0,1,0,49,95,0,3.7829201247206536,0.6347048039899562,-1.0,49,49,2,2,0,0,0,49,49,0,3.797734293379829,0.0,-1.0,49,49,2,2,0,1,0,49,60,0,3.7321389363195654,1.0136251012482416,-1.0,49,49,2,2,0,0,0,49,49,0,3.767254324785753,0.0,-1.0,49,49,2,2,0,0,0,49,49,0,3.7710268365714903,0.0,-1.0,49,49,2,2,0,1,0,49,21,0,3.7778183341644085,0.44611496719547583,-1.0,49,49,2,2
0,0,1,0,49,88,0,3.9161661473397786,1.8869417474172387,-1.0,49,49,2,2,5.04,1.0,7.09,1.0,s02,0,1,0,49,17,0,3.6651791977927033,2.0301017437350235,-1.0,49,49,2,2,0,1,0,49,79,0,3.7697467986396442,1.4841376302716354,-1.0,49,49,2,2,0,1,0,49,74,0,3.872341000080899,0.960484517321913,-1.0,49,49,2,2,0,0,0,49,49,0,3.6610801066541123,0.0,-1.0,49,49,2,2,0,0,0,49,49,0,3.9110238251749645,0.0,-1.0,49,49,2,2,0,0,0,49,49,0,3.659863578504832,0.0,-1.0,49,49,2,2,0,1,0,49,17,0,3.709353684857484,0.7676159403832794,-1.0,49,49,2,2,0,1,0,50,35,0,3.58238948029505,0.8850956248449663,-1.0,49,49,2,2,0,1,0,49,89,0,3.684011335574855,0.9957746199331288,-1.0,49,49,2,2,0,0,0,49,49,0,3.70234516492433,0.0,-1.0,49,49,2,2,0,0,0,49,49,0,3.6202265850091853,0.0,-1.0,49,49,2,2,0,0,0,49,49,0,3.681095949306055,0.0,-1.0,49,49,2,2,0,1,0,49,19,0,3.745488042561888,0.8354685609156738,-1.0,49,49,2,2
0,0,1,0,49,28,0,3.648207787342444,0.5612980549378572,-1.0,49,49,2,2,1.0,8.06,1.0,1.0,s02,0,1,0,50,16,0,3.5681929710577256,0.9776357937383982,-1.0,49,49,2,2,0,1,0,49,92,0,3.5257868956680025,1.2861047658341034,-1.0,49,49,2,2,0,1,0,49,31,49,3.713826629917687,2.080208935329131,0.0,49,0,1,0,0,1,0,49,49,0,3.5246437246964923,0.31903452641871954,-1.0,49,49,2,2,0,1,0,49,98,0,3.7780516339198886,0.8588483673414015,-1.0,49,49,2,2,0,0,0,50,0,0,3.463757272467787,-1.0,-1.0,49,0,1,0,0,1,0,49,49,0,3.6678423543530365,0.8663402618776601,-1.0,49,49,2,2,0,0,0,49,0,0,3.4796615771624095,-1.0,-1.0,49,0,1,0,0,0,0,49,0,0,3.442837651870185,-1.0,-1.0,49,0,1,0,0,1,0,49,8,0,3.66761528200256,1.2287198955061467,-1.0,49,49,2,2,0,0,0,50,49,0,3.5897255652644806,0.0,-1.0,49,49,2,2,0,1,0,50,7,0,3.5282503298392123,0.7000129216851989,-1.0,49,49,2,2,0,1,0,49,64,0,3.5238203783051794,1.430017748612942,-1.0,49,49,2,2
0,0,1,0,50,97,0,3.5181091895282024,0.5195070011394306,-1.0,49,49,2,2,1.0,9.0,1.0,1.0,s02,0,0,0,50,49,0,3.411547399726342,0.0,-1.0,49,49,2,2,0,0,0,50,49,0,3.336260431629365,0.0,-1.0,49,49,2,2,0,0,0,49,27,0,3.513241295971746,0.10877838682560753,-1.0,49,49,2,2,0,0,0,49,49,0,3.3973919680853295,0.0,-1.0,49,49,2,2,0,1,0,50,22,0,3.797934828293896,0.6673502225883476,-1.0,49,49,2,2,0,0,0,50,49,0,3.430157556830016,0.0,-1.0,49,49,2,2,0,0,0,49,49,0,3.269147258011946,0.0,-1.0,49,49,2,2,0,0,0,49,49,0,3.3912144190748346,0.0,-1.0,49,49,2,2,0,0,0,49,0,0,3.452711185138978,-1.0,-1.0,49,0,1,0,0,0,0,50,49,0,3.479620416741949,0.0,-1.0,49,49,2,2,0,0,0,49,0,0,3.3317945127500623,-1.0,-1.0,49,0,1,0,0,1,0,49,93,0,3.380679814465132,0.9280831494067968,-1.0,49,49,2,2,0,0,0,49,49,0,3.358283028270911,0.0,-1.0,49,49,2,2
0,0,0,0,49,49,0,3.8496222913840117,0.0,-1.0,49,49,2,2,1.0,1.0,2.97,1.0,s02,0,1,0,49,95,0,3.606172755745797,1.25835129416738,-1.0,49,49,2,2,0,0,0,49,0,0,3.5076060164956746,-1.0,-1.0,49,0,1,0,0,1,0,50,53,0,3.848712478078369,0.9335429201369144,-1.0,49,49,2,2,0,0,0,49,49,0,3.5364186387009076,0.0,-1.0,49,49,2,2,0,1,0,49,89,0,3.9165520828174416,1.5039130544276675,-1.0,49,49,2,2,0,0,0,49,0,0,3.656572803698231,-1.0,-1.0,49,0,1,0,0,0,0,50,0,0,3.393810601223838,-1.0,-1.0,49,0,1,0,0,0,0,49,49,0,3.5563952441852154,0.0,-1.0,49,49,2,2,0,0,0,49,49,0,3.572392110854505,0.0,-1.0,49,49,2,2,0,0,0,50,49,0,3.705747293725084,0.0,-1.0,49,49,2,2,0,0,0,50,49,0,3.5451392301186324,0.0,-1.0,49,49,2,2,0,0,0,49,0,0,3.5377940055231245,-1.0,-1.0,49,0,1,0,0,0,0,49,0,0,3.5195423206111442,-1.0,-1.0,49,0,1,0
0,0,1,0,49,13,0,3.813657207893095,0.4854992789111128,-1.0,49,49,2,2,6.05,6.67,6.94,6.53,s02,0,1,0,49,41,0,3.6244960423532477,0.4529794604307174,-1.0,49,49,2,2,0,1,0,49,69,0,3.570232405663847,0.9166923558041552,-1.0,49,49,2,2,0,1,0,49,87,0,3.827099740326648,0.9804892339205171,-1.0,49,49,2,2,0,1,0,49,49,0,3.6053995263221985,0.38885790853113733,-1.0,49,49,2,2,0,1,0,49,58,49,3.9319059081602235,1.8170752942987158,0.0,49,0,1,0,0,1,0,49,77,0,3.588666031872642,0.9998432893521797,-1.0,49,49,2,2,0,1,0,49,67,0,3.300656324877058,1.3585292446434278,-1.0,49,49,2,2,0,1,0,49,68,0,3.524298873964593,0.5703559433231015,-1.0,49,49,2,2,0,1,0,49,49,0,3.663772981514703,0.5884830622449884,-1.0,49,49,2,2,0,1,0,49,50,0,3.704421033345732,0.9681478725319237,-1.0,49,49,2,2,0,0,0,49,49,0,3.5769943088691134,0.0,-1.0,49,49,2,2,0,1,0,50,75,0,3.611273663199408,1.0989818163479448,-1.0,49,49,2,2,0,0,0,49,49,0,3.588565925681497,0.0,-1.0,49,49,2,2
0,0,1,0,50,55,0,3.936538202958696,1.3726379493133383,-1.0,49,49,2,2,5.33,4.67,4.97,4.45,s03,0,2,0,49,92,0,3.883925978682122,2.0709804766863034,-1.0,49,49,2,2,0,1,0,49,33,0,3.705297168113792,0.9542500193302533,-1.0,49,49,2,2,0,0,0,49,49,0,3.7612008395380387,0.0,-1.0,49,49,2,2,0,1,0,49,2,0,3.7414482825482858,0.9999973816360472,-1.0,49,49,2,2,0,1,0,49,88,0,3.824555925021707,0.3703627347945301,-1.0,49,49,2,2,0,1,0,50,2,0,3.7757926824608177,0.9878053111956673,-1.0,49,49,2,2,0,1,0,50,11,0,3.8362131879386356,0.6709120419935887,-1.0,49,49,2,2,0,1,0,49,77,0,3.755211484224277,0.8023152274217027,-1.0,49,49,2,2,0,0,0,49,49,0,3.7492405771459207,0.0,-1.0,49,49,2,2,0,0,0,49,49,0,3.855929697851096,0.0,-1.0,49,49,2,2,0,0,0,50,49,0,3.782839294554378,0.0,-1.0,49,49,2,2,0,0,0,49,49,0,3.808864559336239,0.0,-1.0,49,49,2,2,0,1,0,50,79,0,3.8375191959972645,0.7522504417773745,-1.0,49,49,2,2
0,0,0,0,49,49,0,3.9549362044587038,0.0,-1.0,49,49,2,2,7.21,4.44,5.22,6.23,s03,0,0,0,49,49,0,3.8428790141926354,0.0,-1.0,49,49,2,2,0,0,0,49,49,0,3.882912463250146,0.0,-1.0,49,49,2,2,0,1,0,50,72,0,3.8071237251481613,0.9409186737108938,-1.0,49,49,2,2,0,1,0,49,15,0,3.8864078788182637,1.482069478536937,-1.0,49,49,2,2,0,1,0,50,89,0,3.907091006940987,1.6788076480137009,-1.0,49,49,2,2,0,1,0,49,10,0,3.8385210515557313,1.5656366511292417,-1.0,49,49,2,2,0,1,0,49,86,0,3.897485363433893,1.512420841084279,-1.0,49,49,2,2,0,1,0,49,7,0,3.891076559604205,0.9823325385099502,-1.0,49,49,2,2,0,1,0,49,9,0,3.9466284686387962,0.8116117802831372,-1.0,49,49,2,2,0,0,0,50,5,0,3.8491580867977166,0.2642388296986567,-1.0,49,49,2,2,0,1,0,49,77,0,3.882580098152371,0.9731469116996891,-1.0,49,49,2,2,0,1,0,49,15,0,3.8613832770902543,0.7918767397086705,-1.0,49,49,2,2,0,0,0,49,0,0,3.8451329955785125,-1.0,-1.0,49,0,1,0
0,0,1,0,49,41,0,3.869781965614101,1.4388365597943669,-1.0,49,49,2,2,7.55,2.81,5.91,6.81,s03,0,1,0,50,36,0,3.957080096212693,1.5306558788705824,-1.0,49,49,2,2,0,0,0,49,49,0,3.9296654663363335,0.0,-1.0,49,49,2,2,0,1,0,49,49,0,3.7890932921635208,0.2112030732451111,-1.0,49,49,2,2,0,0,0,49,49,0,3.848817242913236,0.0,-1.0,49,49,2,2,0,0,0,49,49,0,3.8762591293235844,0.0,-1.0,49,49,2,2,0,1,0,49,18,0,3.9154876561478873,1.8172852952776777,-1.0,49,49,2,2,0,1,0,49,76,0,3.963076962013893,1.246786812425041,-1.0,49,49,2,2,0,1,0,49,92,0,3.9152049441704255,0.8955163648357818,-1.0,49,49,2,2,0,0,0,49,49,0,3.8669038383892786,0.0,-1.0,49,49,2,2,0,1,0,49,19,0,3.8502683934053725,0.8952036550855368,-1.0,49,49,2,2,0,1,0,49,9,0,3.8825029250144905,1.0960792479473287,-1.0,49,49,2,2,0,1,0,49,82,0,3.867277973784781,1.8566576615502972,-1.0,49,49,2,2,0,1,0,50,69,0,3.847645499881289,1.5488419118382681,-1.0,49,49,2,2
0,0,1,0,49,16,0,3.906080162510567,0.9563248621223587,-1.0,49,49,2,2,4.69,3.69,5.0,4.19,s03,0,1,0,49,44,0,3.7812445359010036,0.9921601607767189,-1.0,49,49,2,2,0,1,0,49,93,49,3.8310648218479364,1.6135624154059103,0.0,49,0,1,0,0,0,0,49,49,0,3.809717568429158,0.0,-1.0,49,49,2,2,0,1,0,49,81,0,3.759477438354625,1.0971869201382722,-1.0,49,49,2,2,0,0,0,49,49,0,3.7057340637984453,0.0,-1.0,49,49,2,2,0,1,0,49,79,0,3.9225947857783825,2.0727467175199332,-1.0,49,49,2,2,0,0,0,50,0,0,3.819852207252152,-1.0,-1.0,49,0,1,0,0,1,0,49,90,0,3.81171708469803,0.9245265888822471,-1.0,49,49,2,2,0,0,0,49,49,49,3.7439450654771114,0.0,0.0,49,0,1,0,0,1,0,49,22,0,3.7898765967851142,0.9423592896004237,-1.0,49,49,2,2,0,1,0,49,81,0,3.790550639747199,0.13153126493059503,-1.0,49,49,2,2,0,1,0,49,3,0,3.7246204715715887,0.993753183904841,-1.0,49,49,2,2,0,1,0,49,78,0,3.8043897997550755,0.37853290709998094,-1.0,49,49,2,2
0,0,1,0,49,44,0,3.917284570766012,1.8084631543846799,-1.0,49,49,2,2,6.92,4.44,5.56,7.17,s03,0,1,0,50,79,0,3.849839374286201,0.9778409570511434,-1.0,49,49,2,2,0,0,0,49,49,0,3.5036592023485564,0.0,-1.0,49,49,2,2,0,1,0,49,61,0,3.7383451119985693,0.9394635544617694,-1.0,49,49,2,2,0,0,0,49,49,0,3.500974730141199,0.0,-1.0,49,49,2,2,0,1,0,49,98,0,3.7204481096423487,0.7610057234482291,-1.0,49,49,2,2,0,1,0,49,18,0,3.864707426090421,1.4278760011498128,-1.0,49,49,2,2,0,1,0,49,25,0,3.8755161594085563,0.993382560846702,-1.0,49,49,2,2,0,1,0,49,74,0,3.493977683454562,0.32165238896056475,-1.0,49,49,2,2,0,0,0,49,49,0,3.681734699482272,0.0,-1.0,49,49,2,2,0,0,0,49,49,0,3.5882195832628967,0.0,-1.0,49,49,2,2,0,0,0,50,49,0,3.522790854318942,0.0,-1.0,49,49,2,2,0,1,0,50,49,0,3.553060173631435,0.8421969606215203,-1.0,49,49,2,2,0,0,0,49,49,0,3.606164616265987,0.0,-1.0,49,49,2,2
0,0,1,0,49,81,49,3.8596330108383423,0.8792692891350712,0.0,49,0,1,0,6.79,1.97,4.38,7.32,s03,0,1,0,49,90,0,3.8696437764203377,0.8932421987446773,-1.0,49,49,2,2,0,1,0,49,91,0,3.3662445274223036,0.8647791263366694,-1.0,49,49,2,2,0,0,0,50,0,0,3.7261625287270843,-1.0,-1.0,49,0,1,0,0,0,0,49,49,0,3.4288391004103613,0.0,-1.0,49,49,2,2,0,0,0,49,49,0,3.4420780249133087,0.0,-1.0,49,49,2,2,0,0,0,49,0,0,3.9136970398796658,-1.0,-1.0,49,0,1,0,0,1,0,50,89,0,3.8624609230171916,0.7743586772765034,-1.0,49,49,2,2,0,1,0,49,49,0,3.4580841657840633,0.31051076961708507,-1.0,49,49,2,2,0,1,0,50,49,0,3.387849655736453,1.4725793677605694,-1.0,49,49,2,2,0,0,0,49,49,0,3.4761167549410663,0.0,-1.0,49,49,2,2,0,1,0,49,92,0,3.394624175049447,1.2618300602138737,-1.0,49,49,2,2,0,1,0,50,70,0,3.4199561734481914,0.8276671249629668,-1.0,49,49,2,2,0,0,0,49,49,0,3.533164995473566,0.0,-1.0,49,49,2,2
0,0,1,0,49,49,0,3.913706764073408,0.3144646995191251,-1.0,49,49,2,2,5.45,3.01,5.04,5.79,s03,0,1,0,49,92,0,3.771926276430558,0.9149670809830968,-1.0,49,49,2,2,0,1,0,49,6,0,3.5404240862017704,0.7552285124354974,-1.0,49,49,2,2,0,0,0,49,49,0,3.806808690636084,0.0,-1.0,49,49,2,2,0,1,0,49,12,0,3.80274746908785,1.5615185183530835,-1.0,49,49,2,2,0,0,0,49,49,0,3.7667829760589755,0.0,-1.0,49,49,2,2,0,1,0,49,61,0,3.8877317813475893,2.005027469504808,-1.0,49,49,2,2,0,0,0,49,49,0,3.8701042609527105,0.0,-1.0,49,49,2,2,0,1,0,49,11,0,3.7334898073779224,1.5051065920738116,-1.0,49,49,2,2,0,1,0,50,53,0,3.7589670320900233,0.6030102158717152,-1.0,49,49,2,2,0,1,0,49,48,0,3.7414037923628403,0.42310418311438297,-1.0,49,49,2,2,0,1,0,49,8,0,3.736599718638471,0.7830143815818029,-1.0,49,49,2,2,0,0,0,50,49,0,3.8343993341276947,0.0,-1.0,49,49,2,2,0,1,0,50,41,0,3.7197860608077655,1.0183848862984148,-1.0,49,49,2,2
0,0,1,0,49,22,0,3.882292395821903,1.3582054555050367,-1.0,49,49,2,2,7.14,4.33,5.74,6.35,s03,0,1,0,49,58,0,3.83757234165809,0.9640138840514244,-1.0,49,49,2,2,0,0,0,49,49,0,3.8309092915287235,0.0,-1.0,49,49,2,2,0,1,0,49,47,49,3.755142592660267,1.677235697023134,0.0,49,0,1,0,0,1,0,49,56,0,3.6935883195270023,0.7169184671612373,-1.0,49,49,2,2,0,1,0,49,81,0,3.8644692410099966,1.4766488384707446,-1.0,49,49,2,2,0,1,0,50,31,49,3.82751511789045,1.0093133818160442,0.0,49,0,1,0,0,1,0,50,78,49,3.873530613890274,1.9298126082918112,0.0,49,0,1,0,0,0,0,49,49,0,3.823405893781223,0.0,-1.0,49,49,2,2,0,0,0,49,0,0,3.915640341462812,-1.0,-1.0,49,0,1,0,0,0,0,50,49,0,3.91480248657919,0.0,-1.0,49,49,2,2,0,0,0,50,49,0,3.8736921112988103,0.0,-1.0,49,49,2,2,0,0,0,49,0,0,3.8023809309242065,-1.0,-1.0,49,0,1,0,0,1,0,49,49,0,3.8664102962346503,0.5164908004777695,-1.0,49,49,2,2
0,0,2,0,50,78,0,3.829677472526563,1.8196185320148268,-1.0,49,49,2,2,7.33,3.23,5.99,7.78,s03,0,1,0,50,17,0,3.9300778402824887,0.3272008287472774,-1.0,49,49,2,2,0,1,0,49,84,0,3.387572442286741,1.4746111668455943,-1.0,49,49,2,2,0,0,0,49,49,0,3.5582528157450968,0.0,-1.0,49,49,2,2,0,0,0,49,49,0,3.5496781100260546,0.0,-1.0,49,49,2,2,0,0,0,50,49,0,3.319330824603976,0.0,-1.0,49,49,2,2,0,1,0,49,54,0,3.7872513825542464,0.5036255253019519,-1.0,49,49,2,2,0,1,0,49,11,0,3.6606290984808156,1.5276379571960084,-1.0,49,49,2,2,0,0,0,49,49,0,3.432558881743314,0.0,-1.0,49,49,2,2,0,1,0,50,77,0,3.5511992325051134,0.3797712381600052,-1.0,49,49,2,2,0,1,0,49,90,0,3.4990238180612536,0.999997643689664,-1.0,49,49,2,2,0,0,0,49,49,0,3.4955801204708945,0.0,-1.0,49,49,2,2,0,0,0,49,49,0,3.5884063813630407,0.0,-1.0,49,49,2,2,0,0,0,49,49,0,3.6089805656761746,0.0,-1.0,49,49,2,2
0,0,1,0,49,19,0,3.910657417156923,1.5831136848326257,-1.0,49,49,2,2,4.45,5.49,5.71,5.23,s03,0,1,0,50,25,0,3.8372894859550923,1.8549978833524223,-1.0,49,49,2,2,0,0,0,49,49,0,3.349575872310732,0.0,-1.0,49,49,2,2,0,1,0,50,6,0,3.725813198607994,0.9916928226567151,-1.0,49,49,2,2,0,1,0,49,88,0,3.671450870964012,0.9367468291894528,-1.0,49,49,2,2,0,0,0,50,50,0,3.5761211582657553,0.0,-1.0,49,49,2,2,0,1,0,49,3,0,3.7857006531118893,0.9924730491534967,-1.0,49,49,2,2,0,1,0,49,13,0,3.8963629446128283,0.6874252060486898,-1.0,49,49,2,2,0,1,0,49,94,0,3.5569728350446943,1.433254106656423,-1.0,49,49,2,2,0,0,0,49,49,0,3.673567267889705,0.0,-1.0,49,49,2,2,0,1,0,50,16,0,3.561800090009696,0.9257097008795012,-1.0,49,49,2,2,0,1,0,49,31,0,3.6272629253453,0.6535801875810451,-1.0,49,49,2,2,0,1,0,49,93,0,3.670003616338908,1.079881496594479,-1.0,49,49,2,2,0,1,0,50,12,0,3.585479903102092,1.5149753252473057,-1.0,49,49,2,2
0,0,2,0,49,25,0,3.9575859859402205,1.714182232298759,-1.0,49,49,2,2,7.94,3.12,4.23,7.1,s03,0,1,0,50,12,0,3.89485331257051,0.8986857767730679,-1.0,49,49,2,2,0,1,0,50,20,0,3.9216299166536994,1.287663188942489,-1.0,49,49,2,2,0,1,0,49,82,0,3.8254962514349793,0.7214513174824438,-1.0,49,49,2,2,0,0,0,49,0,0,3.790925025449796,-1.0,-1.0,49,0,1,0,0,1,0,49,98,0,3.732193284647893,1.9200233233595048,-1.0,49,49,2,2,0,1,0,50,12,0,3.870867304305432,1.58230722418764,-1.0,49,49,2,2,0,1,0,49,73,0,3.8914917511708373,0.10839925260737364,-1.0,49,49,2,2,0,1,0,50,71,0,3.8425290075411938,0.9156294373392565,-1.0,49,49,2,2,0,1,0,49,73,0,3.7841516890815603,0.8328058698847198,-1.0,49,49,2,2,0,1,0,49,18,0,3.8876832792363545,0.9592271963805582,-1.0,49,49,2,2,0,1,0,50,49,0,3.849363308996312,0.9978843610199081,-1.0,49,49,2,2,0,1,0,49,19,0,3.803123353108116,0.9465898992661945,-1.0,49,49,2,2,0,1,0,49,46,0,3.962312886391429,2.1411263815118713,-1.0,49,49,2,2
0,0,1,0,49,66,0,3.914109746991422,0.7751714068044325,-1.0,49,49,2,2,6.36,3.15,3.12,6.29,s03,0,0,0,50,49,0,3.819639867494823,0.0,-1.0,49,49,2,2,0,0,0,50,49,0,3.687173468486208,0.0,-1.0,49,49,2,2,0,0,0,50,0,0,3.7582267028772636,-1.0,-1.0,49,0,1,0,0,0,0,49,49,0,3.754961476219291,0.0,-1.0,49,49,2,2,0,1,0,49,84,0,3.710215312561377,1.2366767108592818,-1.0,49,49,2,2,0,0,0,50,49,0,3.84753099092988,0.0,-1.0,49,49,2,2,0,0,0,49,49,0,3.9180216216481596,0.0,-1.0,49,49,2,2,0,0,0,50,49,0,3.7857043195699545,0.0,-1.0,49,49,2,2,0,1,0,50,9,0,3.9066042744682696,1.578601446131743,-1.0,49,49,2,2,0,1,0,49,75,0,3.760037166719396,0.8534400091341248,-1.0,49,49,2,2,0,1,0,49,25,0,3.821903240283276,0.8704350193152776,-1.0,49,49,2,2,0,0,0,49,0,0,3.8414484008647647,-1.0,-1.0,49,0,1,0,0,1,0,49,77,0,3.8977030596634905,0.8950728444008578,-1.0,49,49,2,2
0,0,1,0,49,80,0,3.621580741936141,1.522896940716246,-1.0,49,49,2,2,7.91,2.97,3.68,6.99,s03,0,1,0,49,49,0,3.8963040806931972,0.5949834279848923,-1.0,49,49,2,2,0,1,0,49,85,0,3.023707038266119,1.3791496013066322,-1.0,49,49,2,2,0,1,0,49,95,0,3.3636648464438896,0.979955658872023,-1.0,49,49,2,2,0,0,0,49,0,0,2.894207643982325,-1.0,-1.0,49,0,1,0,0,1,0,50,80,0,3.3587758757438695,1.577681728425996,-1.0,49,49,2,2,0,1,0,49,54,0,3.8320055499893546,0.9625993794401787,-1.0,49,49,2,2,0,0,0,49,0,0,3.8342137745024996,-1.0,-1.0,49,0,1,0,0,1,0,49,66,49,3.1495672179234977,1.3983706843612747,0.0,49,0,1,0,0,0,0,49,49,0,3.2154786731664906,0.0,-1.0,49,49,2,2,0,1,0,49,52,0,3.2880497963948594,0.9867598283215623,-1.0,49,49,2,2,0,0,0,49,49,0,2.9730904246007506,0.0,-1.0,49,49,2,2,0,0,0,50,49,0,3.0444924880172137,0.0,-1.0,49,49,2,2,0,1,0,49,47,0,3.4342655999121665,1.9329784925325013,-1.0,49,49,2,2
0,0,1,0,49,78,0,3.9545482560692315,0.24739514711714403,-1.0,49,49,2,2,7.29,3.86,4.4,7.29,s03,0,1,0,49,82,0,3.7971617427491116,0.40619616920474355,-1.0,49,49,2,2,0,0,0,49,49,0,3.7556081384184257,0.0,-1.0,49,49,2,2,0,1,0,49,49,0,3.7835779446178646,0.8149137314121175,-1.0,49,49,2,2,0,0,0,49,49,0,3.739617817773571,0.0,-1.0,49,49,2,2,0,1,0,50,13,0,3.879641735759431,1.5354992205128712,-1.0,49,49,2,2,0,1,0,49,13,0,3.795435844640047,0.5739439461927226,-1.0,49,49,2,2,0,1,0,49,49,49,3.8982224447693543,1.2818490345553928,0.0,49,0,1,0,0,1,0,49,12,0,3.759015708814461,0.9328729309361753,-1.0,49,49,2,2,0,1,0,49,83,0,3.7331202009884032,1.359777366800149,-1.0,49,49,2,2,0,0,0,50,49,0,3.8569053918908165,0.0,-1.0,49,49,2,2,0,0,0,49,49,0,3.672359380497173,0.0,-1.0,49,49,2,2,0,1,0,49,49,0,3.7196204771826764,0.37893489496103894,-1.0,49,49,2,2,0,1,0,49,44,0,3.874632526929822,1.296854812282,-1.0,49,49,2,2
0,0,1,0,50,97,0,3.9113264044145395,0.33558592249837677,-1.0,49,49,2,2,7.36,2.92,3.81,5.88,s03,0,1,0,49,85,0,3.6229063868911155,1.0813530987992086,-1.0,49,49,2,2,0,0,0,49,0,0,3.6310287242637145,-1.0,-1.0,49,0,1,0,0,1,0,49,87,0,3.7960960627312126,0.9915013395423952,-1.0,49,49,2,2,0,1,0,49,90,0,3.76774713435849,1.418181494180807,-1.0,49,49,2,2,0,1,0,50,93,0,3.847138173889234,1.5360283148509954,-1.0,49,49,2,2,0,1,0,49,17,0,3.800088033975436,1.478066521358713,-1.0,49,49,2,2,0,1,0,50,11,0,3.7397048810532523,1.2294554948667447,-1.0,49,49,2,2,0,0,0,49,49,0,3.654110705103477,0.0,-1.0,49,49,2,2,0,0,0,49,0,0,3.82131387603783,-1.0,-1.0,49,0,1,0,0,0,0,50,49,0,3.8113911539548186,0.0,-1.0,49,49,2,2,0,1,0,49,49,0,3.7239967983206244,0.7974157443139569,-1.0,49,49,2,2,0,1,0,49,83,0,3.767257817637316,1.737494662204868,-1.0,49,49,2,2,0,1,0,50,26,0,3.755865870355079,1.4674058042263345,-1.0,49,49,2,2
0,0,1,0,49,84,0,3.731548342790502,1.3638249674416638,-1.0,49,49,2,2,7.15,4.37,4.03,7.54,s03,0,1,0,49,94,0,3.56394249481017,0.7711821172324642,-1.0,49,49,2,2,0,1,0,49,3,0,2.9023966662737655,0.9840613962898893,-1.0,49,49,2,2,0,1,0,49,49,0,3.2274606750579067,0.7889744620390384,-1.0,49,49,2,2,0,0,0,49,0,0,2.845306561611462,-1.0,-1.0,49,0,1,0,0,0,0,50,0,0,3.0595062097266217,-1.0,-1.0,49,0,1,0,0,0,0,50,49,0,3.840494778397666,0.0,-1.0,49,49,2,2,0,0,0,49,49,0,3.9203144056933654,0.0,-1.0,49,49,2,2,0,0,0,49,49,0,2.9017259969722824,0.0,-1.0,49,49,2,2,0,0,0,49,49,0,2.8897225044423926,0.0,-1.0,49,49,2,2,0,0,0,49,49,0,2.956277452154984,0.0,-1.0,49,49,2,2,0,1,0,50,9,0,2.8699933477635367,0.8630311708893061,-1.0,49,49,2,2,0,0,0,50,49,0,2.884530991869043,0.0,-1.0,49,49,2,2,0,1,0,49,75,0,2.9830009511305775,0.9352090467822274,-1.0,49,49,2,2
0,0,1,0,49,95,0,3.768182595110465,0.615081769124093,-1.0,49,49,2,2,4.56,1.78,4.1,5.41,s03,0,1,0,50,49,0,3.9304687591835195,0.956771358384417,-1.0,49,49,2,2,0,1,0,50,66,0,3.647362261879476,0.9715430743962747,-1.0,49,49,2,2,0,1,0,49,88,0,3.7855267493456415,0.9400170585414386,-1.0,49,49,2,2,0,0,0,50,0,0,3.806755223058667,-1.0,-1.0,49,0,1,0,0,1,0,49,11,49,3.781539512657719,0.9897398422967569,0.0,49,0,1,0,0,0,0,49,49,0,3.9523433039700837,0.0,-1.0,49,49,2,2,0,1,0,49,50,0,3.9165937053024726,0.6875594528387395,-1.0,49,49,2,2,0,1,0,49,83,0,3.726733551998334,0.9084307345314712,-1.0,49,49,2,2,0,1,0,49,9,0,3.8135929434589717,1.511603115934826,-1.0,49,49,2,2,0,1,0,50,70,0,3.6911192975808693,0.9839277036936614,-1.0,49,49,2,2,0,1,0,50,75,0,3.7620799077441833,1.8280153062604978,-1.0,49,49,2,2,0,0,0,49,49,0,3.728993314986531,0.0,-1.0,49,49,2,2,0,1,0,49,57,0,3.7388626060914034,0.7282594528639605,-1.0,49,49,2,2
0,0,1,0,49,43,0,3.9044120222580356,0.9234546408110539,-1.0,49,49,2,2,7.1,2.13,5.04,6.32,s03,0,0,0,49,0,0,3.7131974436237667,-1.0,-1.0,49,0,1,0,0,0,0,50,49,0,3.696793672554735,0.0,-1.0,49,49,2,2,0,0,0,49,49,0,3.75018476678271,0.0,-1.0,49,49,2,2,0,2,0,49,77,0,3.4984085812568493,1.5731050250036878,-1.0,49,49,2,2,0,1,0,49,44,0,3.7723206552861877,1.3025928751755358,-1.0,49,49,2,2,0,1,0,49,33,0,3.9542029697752867,2.187429177594376,-1.0,49,49,2,2,0,1,0,50,30,0,3.884834474492082,1.2246965321438235,-1.0,49,49,2,2,0,0,0,49,0,0,3.5777986501138024,-1.0,-1.0,49,0,1,0,0,1,0,49,49,0,3.731601485764911,0.5286659657118801,-1.0,49,49,2,2,0,1,0,49,51,0,3.7071589159427027,0.94140015300109,-1.0,49,49,2,2,0,1,0,49,56,49,3.557125589165553,1.8978372062872662,0.0,49,0,1,0,0,1,0,49,49,49,3.628128488938689,0.9880854108513717,0.0,49,0,1,0,0,0,0,50,0,0,3.6509427353856556,-1.0,-1.0,49,0,1,0
0,0,1,0,49,87,0,3.8275914869449488,0.8730486481937232,-1.0,49,49,2,2,8.14,3.17,5.47,7.97,s03,0,0,0,49,49,0,3.6801548429700417,0.0,-1.0,49,49,2,2,0,0,0,49,49,0,3.6435965832294532,0.0,-1.0,49,49,2,2,0,1,0,49,50,0,3.6854640256169713,0.9839141843015862,-1.0,49,49,2,2,0,1,0,49,97,0,3.6789389433979878,0.4409647923976963,-1.0,49,49,2,2,0,1,0,50,49,0,3.749920972404834,0.389192596887191,-1.0,49,49,2,2,0,1,0,49,81,0,3.893040958635452,0.4935411427788132,-1.0,49,49,2,2,0,1,0,50,51,0,3.8800338132362473,1.1457579747234923,-1.0,49,49,2,2,0,0,0,49,49,0,3.69751061699783,0.0,-1.0,49,49,2,2,0,0,0,49,49,0,3.7345266556395424,0.0,-1.0,49,49,2,2,0,1,0,49,66,0,3.6805434642939785,0.8400676862345801,-1.0,49,49,2,2,0,0,0,49,49,0,3.634705535496034,0.0,-1.0,49,49,2,2,0,0,0,49,49,0,3.501333368440878,0.0,-1.0,49,49,2,2,0,0,0,49,49,0,3.7105227474724662,0.0,-1.0,49,49,2,2
0,0,1,0,49,7,0,3.8679506913059307,1.1024550128296584,-1.0,49,49,2,2,6.26,3.13,4.32,5.23,s03,0,1,0,49,92,0,3.864323524556857,0.8438567311610999,-1.0,49,49,2,2,0,0,0,49,49,0,3.8489936647333676,0.0,-1.0,49,49,2,2,0,0,0,49,49,0,3.7808590411806704,0.0,-1.0,49,49,2,2,0,1,0,49,77,0,3.7674108080481417,0.5021237377417003,-1.0,49,49,2,2,0,1,0,49,31,0,3.830795854682178,1.3347564153774256,-1.0,49,49,2,2,0,1,0,49,89,0,3.8769169380847077,0.9922558997023098,-1.0,49,49,2,2,0,0,0,49,49,0,3.7813369635450425,0.0,-1.0,49,49,2,2,0,1,0,49,1,0,3.7672837793084324,0.9480613798352989,-1.0,49,49,2,2,0,0,0,49,49,0,3.8774778272620143,0.0,-1.0,49,49,2,2,0,1,0,50,84,0,3.8121012076189977,1.584625125713007,-1.0,49,49,2,2,0,0,0,50,49,0,3.865348153973127,0.0,-1.0,49,49,2,2,0,1,0,49,6,0,3.9186301910049215,0.9771068886084038,-1.0,49,49,2,2,0,1,0,50,26,49,3.8342914317986994,1.1392287134190284,0.0,49,0,1,0
0,0,1,0,49,55,0,3.8530877047582655,1.1235268471506643,-1.0,49,49,2,2,4.99,6.44,4.54,6.55,s03,0,0,0,49,49,0,3.763359555083558,0.0,-1.0,49,49,2,2,0,1,0,49,95,0,3.6380955847524348,0.18708638519589385,-1.0,49,49,2,2,0,1,0,50,83,0,3.821509560518995,0.03676170052960184,-1.0,49,49,2,2,0,0,0,49,0,0,3.7171036619942313,-1.0,-1.0,49,0,1,0,0,1,0,49,49,0,3.823633752787962,0.9955122441345863,-1.0,49,49,2,2,0,0,0,49,49,0,3.8331366617226834,0.0,-1.0,49,49,2,2,0,1,0,49,50,0,3.925252859745143,1.5458577959502877,-1.0,49,49,2,2,0,0,0,49,49,0,3.6585847475049524,0.0,-1.0,49,49,2,2,0,0,0,49,0,0,3.748964285510235,-1.0,-1.0,49,0,1,0,0,0,0,49,49,0,3.6952063708733047,0.0,-1.0,49,49,2,2,0,1,0,49,5,0,3.6854158122395817,0.6837238281848013,-1.0,49,49,2,2,0,1,0,49,12,0,3.650266172577869,0.8275456047370079,-1.0,49,49,2,2,0,0,0,49,0,0,3.70240670341657,-1.0,-1.0,49,0,1,0
0,0,1,0,50,27,0,3.582168278912321,0.9298204018801363,-1.0,49,49,2,2,4.94,1.0,4.13,6.21,s03,0,0,0,49,49,0,3.7268349549858684,0.0,-1.0,49,49,2,2,0,1,0,49,63,0,3.0741643126114906,0.9989727587770473,-1.0,49,49,2,2,0,1,0,50,95,0,3.6813581329704026,1.5601613273096968,-1.0,49,49,2,2,0,0,0,49,0,0,3.3057058865280964,-1.0,-1.0,49,0,1,0,0,0,0,49,49,0,3.2431198756183908,0.0,-1.0,49,49,2,2,0,1,0,49,12,0,3.9105196992534688,1.23522675572181,-1.0,49,49,2,2,0,1,0,49,67,0,3.971368744501384,1.9388206830396995,-1.0,49,49,2,2,0,1,0,49,14,0,3.061474443169293,0.9930443296322383,-1.0,49,49,2,2,0,1,0,49,22,0,3.3242494478373157,0.8238963294903819,-1.0,49,49,2,2,0,0,0,49,49,0,3.147533360549002,0.0,-1.0,49,49,2,2,0,0,0,50,0,0,3.2411824174042145,-1.0,-1.0,49,0,1,0,0,1,0,49,71,0,3.2983735490767048,0.6090405404077193,-1.0,49,49,2,2,0,1,0,49,38,0,3.233782274639303,0.2973763935813357,-1.0,49,49,2,2
0,0,1,0,50,70,49,3.8796861125483058,1.3703078803113076,0.0,49,0,1,0,3.65,2.5,3.03,5.92,s03,0,1,0,49,16,0,3.9123188012270744,1.2357821061301182,-1.0,49,49,2,2,0,1,0,49,89,0,3.7645285166813265,0.9706583924612492,-1.0,49,49,2,2,0,1,0,49,68,0,3.870153084202641,0.9838480659610872,-1.0,49,49,2,2,0,0,0,49,49,0,3.808605683317965,0.0,-1.0,49,49,2,2,0,0,0,49,0,0,3.7350926284538137,-1.0,-1.0,49,0,1,0,0,0,0,49,49,0,3.784952751636505,0.0,-1.0,49,49,2,2,0,1,0,49,90,0,3.8392681370587503,1.960134243430388,-1.0,49,49,2,2,0,1,0,49,26,0,3.7828703971710227,1.5026743970826908,-1.0,49,49,2,2,0,1,0,50,48,0,3.8775487222410843,0.6584807497938843,-1.0,49,49,2,2,0,0,0,49,0,0,3.837308352922727,-1.0,-1.0,49,0,1,0,0,0,0,49,49,0,3.8580177615891618,0.0,-1.0,49,49,2,2,0,0,0,49,49,0,3.864337572327742,0.0,-1.0,49,49,2,2,0,0,0,50,49,0,3.8084316309223185,0.0,-1.0,49,49,2,2
0,0,0,0,49,49,0,3.733073793903029,0.0,-1.0,49,49,2,2,3.31,2.27,1.91,6.78,s03,0,1,0,49,95,0,3.881066589258595,0.7328955744879289,-1.0,49,49,2,2,0,1,0,49,69,0,3.877122513790913,1.8248460060130096,-1.0,49,49,2,2,0,0,0,49,49,0,3.9058185529425598,0.0,-1.0,49,49,2,2,0,0,0,49,49,0,3.882365151364429,0.0,-1.0,49,49,2,2,0,1,0,49,72,0,3.9245679548233174,1.5447793066663118,-1.0,49,49,2,2,0,1,0,49,58,0,3.885062238891772,1.56951633427284,-1.0,49,49,2,2,0,1,0,49,80,0,3.858793826046595,1.921001575928503,-1.0,49,49,2,2,0,0,0,50,0,0,3.8879689965336786,-1.0,-1.0,49,0,1,0,0,1,0,49,55,0,3.911575829829251,1.6563832484484922,-1.0,49,49,2,2,0,0,0,50,11,0,3.8122798128736357,0.036534313002219855,-1.0,49,49,2,2,0,1,0,49,49,0,3.907483722900965,0.7072752646861657,-1.0,49,49,2,2,0,1,0,49,20,0,3.9399093510942573,1.3472473095345683,-1.0,49,49,2,2,0,0,0,49,0,0,3.8396238222564767,-1.0,-1.0,49,0,1,0
0,0,0,0,49,49,0,3.9360249538336225,0.0,-1.0,49,49,2,2,3.45,1.41,2.9,6.87,s03,0,1,0,49,71,0,3.8546356452507142,0.5349442468748754,-1.0,49,49,2,2,0,1,0,49,87,0,2.9491927036130874,1.2154688361453025,-1.0,49,49,2,2,0,1,0,49,8,0,3.2487811773173254,1.3009030723410286,-1.0,49,49,2,2,0,0,0,50,49,0,2.9569871943554698,0.0,-1.0,49,49,2,2,0,1,0,49,31,0,2.8997661086003355,1.5097609489614205,-1.0,49,49,2,2,0,1,0,49,44,0,3.87909525952993,0.6365691941849905,-1.0,49,49,2,2,0,0,0,49,49,0,3.857370796558706,0.0,-1.0,49,49,2,2,0,1,0,49,49,0,3.075316404739168,0.6627164005814283,-1.0,49,49,2,2,0,0,0,49,49,0,2.889490415518745,0.0,-1.0,49,49,2,2,0,1,0,50,11,0,3.074949111287939,0.9497858701241868,-1.0,49,49,2,2,0,1,0,50,45,0,3.0250728974811767,0.7204494019950131,-1.0,49,49,2,2,0,1,0,49,59,0,3.0494466802669415,1.2933818413989304,-1.0,49,49,2,2,0,1,0,49,91,0,3.1606784144812097,1.8504781471601206,-1.0,49,49,2,2
0,0,1,0,50,61,0,3.918413769744125,0.9817379584478331,-1.0,49,49,2,2,4.67,1.18,2.64,6.94,s03,0,1,0,49,62,0,3.943578655173321,1.5773502215454085,-1.0,49,49,2,2,0,0,0,49,0,0,3.7830094430843495,-1.0,-1.0,49,0,1,0,0,0,0,50,49,0,3.3379760915105043,0.0,-1.0,49,49,2,2,0,0,0,49,0,0,3.603764723590248,-1.0,-1.0,49,0,1,0,0,1,0,49,58,0,3.786035500797832,1.531445899465662,-1.0,49,49,2,2,0,0,0,49,0,0,3.7669238612419718,-1.0,-1.0,49,0,1,0,0,1,0,49,66,0,3.958368329327807,2.227954899679992,-1.0,49,49,2,2,0,1,0,49,32,0,3.824343431063138,0.9711897117370397,-1.0,49,49,2,2,0,0,0,49,49,0,3.872412008650376,0.0,-1.0,49,49,2,2,0,1,0,50,6,0,3.9055314739354197,1.2522846663576426,-1.0,49,49,2,2,0,1,0,49,91,0,3.7290437276163937,0.6103300289295425,-1.0,49,49,2,2,0,0,0,49,49,0,3.716131269227877,0.0,-1.0,49,49,2,2,0,0,0,49,49,0,3.9312680114639296,0.0,-1.0,49,49,2,2
0,0,1,0,49,19,0,3.881037696260629,1.5166957448151122,-1.0,49,49,2,2,6.72,3.29,4.46,6.22,s03,0,1,0,50,8,0,3.8499258797548475,0.9647368112260474,-1.0,49,49,2,2,0,1,0,50,88,0,3.74879298828878,1.3695301369755615,-1.0,49,49,2,2,0,1,0,49,79,0,3.844230120587142,1.1904385668530426,-1.0,49,49,2,2,0,0,0,49,0,0,3.8677627731040523,-1.0,-1.0,49,0,1,0,0,0,0,49,58,0,3.6076412466388144,0.6424065260246288,-1.0,49,49,2,2,0,1,0,49,43,0,3.8561570006248047,1.408408920564774,-1.0,49,49,2,2,0,1,0,49,6,0,3.791527198789064,0.7928073891447358,-1.0,49,49,2,2,0,1,0,49,96,0,3.7370171460936463,0.9233465518190593,-1.0,49,49,2,2,0,1,0,49,30,0,3.777730224149762,1.1847723409674569,-1.0,49,49,2,2,0,1,0,50,60,0,3.6729567320828997,0.9852144695518329,-1.0,49,49,2,2,0,1,0,49,14,0,3.8471409604661817,0.8720818062874952,-1.0,49,49,2,2,0,1,0,50,97,0,3.8509924859472875,0.0206892811687978,-1.0,49,49,2,2,0,0,0,49,49,0,3.7280528166816755,0.0,-1.0,49,49,2,2
0,0,1,0,49,59,0,3.897788821895139,0.8577196641879407,-1.0,49,49,2,2,5.59,2.51,2.65,6.59,s03,0,1,0,49,94,0,3.844712899441442,1.5565056671325443,-1.0,49,49,2,2,0,1,0,49,58,0,3.8965405700938125,1.154816076250743,-1.0,49,49,2,2,0,1,0,49,31,0,3.9184754828677835,0.7625181818570931,-1.0,49,49,2,2,0,1,0,49,34,49,3.842345014818398,0.9649347266918956,0.0,49,0,1,0,0,1,0,49,32,0,3.8531417841248374,1.5133571549621483,-1.0,49,49,2,2,0,1,0,49,11,0,3.942561387627733,0.9937097086411237,-1.0,49,49,2,2,0,1,0,49,88,0,3.878283818775649,0.5048375441940518,-1.0,49,49,2,2,0,1,0,49,30,0,3.8961104587732476,1.8815418026847806,-1.0,49,49,2,2,0,1,0,50,72,0,3.847624616069511,1.2497539082887312,-1.0,49,49,2,2,0,1,0,50,81,49,3.9331462827882886,1.6836363047075071,0.0,49,0,1,0,0,1,0,49,27,0,3.832579083985039,1.214425652255976,-1.0,49,49,2,2,0,1,0,50,70,0,3.80830853991982,1.3180053873797881,-1.0,49,49,2,2,0,0,0,49,49,0,3.892853374377129,0.0,-1.0,49,49,2,2
0,0,1,0,49,75,0,3.91501595613119,1.561529791322839,-1.0,49,49,2,2,4.47,3.85,3.08,7.14,s03,0,1,0,49,20,0,3.813154712857687,1.166097385736925,-1.0,49,49,2,2,0,0,0,49,49,0,3.571380765997929,0.0,-1.0,49,49,2,2,0,1,0,49,64,0,3.8483231729752165,0.9994472442071385,-1.0,49,49,2,2,0,1,0,50,5,0,3.8466919214216024,1.4983573397218293,-1.0,49,49,2,2,0,0,0,49,49,0,3.592228357479309,0.0,-1.0,49,49,2,2,0,1,0,49,61,49,3.910616471979495,1.591971614479081,0.0,49,0,1,0,0,0,0,50,49,0,3.896159634437072,0.0,-1.0,49,49,2,2,0,0,0,49,0,0,3.520692421502911,-1.0,-1.0,49,0,1,0,0,0,0,49,49,0,3.7166042357473823,0.0,-1.0,49,49,2,2,0,0,0,50,49,0,3.632335777958004,0.0,-1.0,49,49,2,2,0,1,0,50,90,0,3.7525595727096297,0.2831431963090387,-1.0,49,49,2,2,0,1,0,49,79,0,3.8165520398462376,0.5994785818383909,-1.0,49,49,2,2,0,0,0,49,49,0,3.600524163237958,0.0,-1.0,49,49,2,2
0,0,1,0,49,8,0,3.5898393001402384,0.9598797626275719,-1.0,49,49,2,2,3.87,3.09,2.72,6.12,s03,0,0,0,49,49,0,3.5639685417999134,0.0,-1.0,49,49,2,2,0,1,0,49,49,0,2.7760480574785493,0.7808025469568454,-1.0,49,49,2,2,0,0,0,49,49,0,3.095848141422598,0.0,-1.0,49,49,2,2,0,1,0,49,98,0,2.9723866441418814,0.9851868480861091,-1.0,49,49,2,2,0,0,0,49,49,0,2.684896800382307,0.0,-1.0,49,49,2,2,0,1,0,49,57,0,3.8500653504019366,1.3791127699992018,-1.0,49,49,2,2,0,1,0,49,22,0,3.933035729861176,0.9982594960011147,-1.0,49,49,2,2,0,0,0,49,49,0,2.8322131133197077,0.0,-1.0,49,49,2,2,0,1,0,50,61,0,3.024912078923079,1.104650136552564,-1.0,49,49,2,2,0,0,0,49,49,0,2.871042349302185,0.0,-1.0,49,49,2,2,0,0,0,49,49,0,2.8933665780828535,0.0,-1.0,49,49,2,2,0,0,0,50,0,0,2.887934545794718,-1.0,-1.0,49,0,1,0,0,1,0,49,84,0,3.032870751025401,0.904035633567919,-1.0,49,49,2,2
0,0,1,0,50,69,0,3.646192102711428,0.8977749873946903,-1.0,49,49,2,2,4.44,4.06,4.63,5.0,s03,0,0,0,49,50,0,3.7285388426069934,0.0,-1.0,49,49,2,2,0,0,0,50,49,0,3.0979617175903518,0.0,-1.0,49,49,2,2,0,1,0,49,14,0,3.1709563126718914,0.9629161758898725,-1.0,49,49,2,2,0,0,0,49,0,0,2.987671355004661,-1.0,-1.0,49,0,1,0,0,1,0,49,84,0,3.4401228884749258,1.1734743028735604,-1.0,49,49,2,2,0,1,0,49,86,0,3.8550863718910016,1.898142109412431,-1.0,49,49,2,2,0,1,0,49,5,0,3.78839053091566,1.3151700582488355,-1.0,49,49,2,2,0,1,0,50,49,0,3.074275007907708,0.9080415792511435,-1.0,49,49,2,2,0,1,0,50,79,0,3.4634942886841973,0.3718359277835607,-1.0,49,49,2,2,0,1,0,50,64,0,3.1679050126304507,1.2184818758996396,-1.0,49,49,2,2,0,0,0,49,0,0,3.056014701834019,-1.0,-1.0,49,0,1,0,0,0,0,49,49,0,3.1113814151285877,0.0,-1.0,49,49,2,2,0,0,0,50,0,0,3.120376978735409,-1.0,-1.0,49,0,1,0
0,0,1,0,50,69,0,3.9461968555205833,1.9360621733447594,-1.0,49,49,2,2,5.17,4.49,5.91,6.55,s03,0,1,0,49,2,0,3.842209623045847,0.9257491742560389,-1.0,49,49,2,2,0,0,0,49,0,0,3.787265768019642,-1.0,-1.0,49,0,1,0,0,1,0,49,30,0,3.782932745194862,1.575824325611244,-1.0,49,49,2,2,0,0,0,49,49,0,3.8115429244917505,0.0,-1.0,49,49,2,2,0,1,0,50,96,0,3.790231105006985,0.7655030873848597,-1.0,49,49,2,2,0,1,0,49,29,0,3.861875074400309,1.5571663122831054,-1.0,49,49,2,2,0,0,0,49,0,0,3.908712394344844,-1.0,-1.0,49,0,1,0,0,0,0,49,49,0,3.80320033142189,0.0,-1.0,49,49,2,2,0,1,0,49,49,0,3.867319961242115,0.9261644314713838,-1.0,49,49,2,2,0,0,0,49,49,0,3.8765355144490123,0.0,-1.0,49,49,2,2,0,1,0,50,88,0,3.8527395536182025,0.6227931467637301,-1.0,49,49,2,2,0,1,0,49,44,0,3.840653498567457,1.4446245885922413,-1.0,49,49,2,2,0,0,0,49,49,49,3.9137290070451307,0.0,0.0,49,0,1,0
0,0,1,0,50,10,0,3.8753097165283386,0.8119091726406814,-1.0,49,49,2,2,4.05,3.83,5.5,4.99,s03,0,1,0,49,37,0,3.8541621144412277,0.9949260938468066,-1.0,49,49,2,2,0,1,0,49,62,0,3.8115485260452076,0.3836338539424846,-1.0,49,49,2,2,0,1,0,49,92,0,3.686362319793046,0.9485301490990742,-1.0,49,49,2,2,0,0,0,49,5,0,3.7649707324156947,0.15761628574571968,-1.0,49,49,2,2,0,1,0,50,81,0,3.8403809217826295,1.6060543656247086,-1.0,49,49,2,2,0,1,0,50,79,0,3.9017089949643444,1.0742166502221395,-1.0,49,49,2,2,0,1,0,49,19,0,3.874873826585945,1.445758454281251,-1.0,49,49,2,2,0,1,0,50,49,0,3.819805041199516,0.8960730219083666,-1.0,49,49,2,2,0,0,0,50,0,0,3.809197905496952,-1.0,-1.0,49,0,1,0,0,1,0,50,25,0,3.81634785310321,0.7550725561936608,-1.0,49,49,2,2,0,1,0,49,58,0,3.7931874647033577,2.0138011213969045,-1.0,49,49,2,2,0,0,0,49,0,0,3.8002060032987672,-1.0,-1.0,49,0,1,0,0,1,0,49,50,0,3.9017058125059214,0.7767711681874222,-1.0,49,49,2,2
0,0,0,0,49,49,0,3.6641370613159125,0.0,-1.0,49,49,2,2,4.72,8.12,5.85,5.33,s03,0,1,0,50,32,0,3.4573939466996237,1.4414925316276874,-1.0,49,49,2,2,0,0,0,49,0,0,2.6285316976926247,-1.0,-1.0,49,0,1,0,0,1,0,49,69,0,3.2182629068660313,0.3921556519516712,-1.0,49,49,2,2,0,0,0,49,49,0,2.6814358026983927,0.0,-1.0,49,49,2,2,0,1,0,50,9,0,3.0434526192362257,1.4158130533771298,-1.0,49,49,2,2,0,1,0,50,17,0,3.911785587776608,0.40394240017521116,-1.0,49,49,2,2,0,1,0,49,71,0,3.9083521422489746,1.0258637280564669,-1.0,49,49,2,2,0,0,0,49,49,0,2.5276966555136857,0.0,-1.0,49,49,2,2,0,0,0,49,49,0,3.1074091248736537,0.0,-1.0,49,49,2,2,0,1,0,49,83,0,2.942242327195741,1.9004311995888419,-1.0,49,49,2,2,0,1,0,49,37,0,2.7246511380181544,0.2206176792428326,-1.0,49,49,2,2,0,0,0,49,0,0,2.6189521901964192,-1.0,-1.0,49,0,1,0,0,1,0,49,73,0,2.8644147729662053,1.3509048490622544,-1.0,49,49,2,2
0,0,1,0,50,68,49,3.949577100307976,0.33080950546181176,0.0,49,0,1,0,3.18,5.04,5.65,3.15,s03,0,1,0,49,49,0,3.7525924271074054,0.7955712946252639,-1.0,49,49,2,2,0,0,0,50,49,0,3.7346169543993404,0.0,-1.0,49,49,2,2,0,0,0,49,0,0,3.6420575592346514,-1.0,-1.0,49,0,1,0,0,1,0,49,53,0,3.5761146181876464,1.3891489790786689,-1.0,49,49,2,2,0,1,0,49,42,49,3.733646104433196,0.9785017912332951,0.0,49,0,1,0,0,1,0,49,91,0,3.7765980098046867,0.9809784180302608,-1.0,49,49,2,2,0,1,0,50,11,0,3.8977122498032957,1.2928192965144394,-1.0,49,49,2,2,0,1,0,49,22,0,3.649126054722278,0.20364636084973112,-1.0,49,49,2,2,0,0,0,49,49,0,3.842245558430866,0.0,-1.0,49,49,2,2,0,1,0,49,6,0,3.7075024557793186,0.5975682475575426,-1.0,49,49,2,2,0,1,0,49,10,0,3.64165037352306,1.128973419573014,-1.0,49,49,2,2,0,0,0,49,0,0,3.551672644486781,-1.0,-1.0,49,0,1,0,0,1,0,50,31,0,3.74262516137334,1.2619459386027831,-1.0,49,49,2,2
0,0,0,0,50,49,0,3.8242337612612656,0.0,-1.0,49,49,2,2,5.01,5.5,4.54,3.86,s03,0,0,0,50,49,0,3.860212202368767,0.0,-1.0,49,49,2,2,0,0,0,50,49,0,3.494762050319002,0.0,-1.0,49,49,2,2,0,1,0,50,17,0,3.634544635998121,0.878472952309131,-1.0,49,49,2,2,0,0,0,50,49,0,3.710784816601706,0.0,-1.0,49,49,2,2,0,1,0,50,82,0,3.8495281914163657,1.222177186893922,-1.0,49,49,2,2,0,1,0,49,20,0,3.876037793261227,0.9843585016273041,-1.0,49,49,2,2,0,1,0,49,78,0,3.9538812240348666,1.5618413858454063,-1.0,49,49,2,2,0,1,0,49,73,0,3.675216619839868,0.961843274001266,-1.0,49,49,2,2,0,1,0,49,17,0,3.6932077304243593,0.7204274340706465,-1.0,49,49,2,2,0,0,0,50,0,0,3.7459946721471966,-1.0,-1.0,49,0,1,0,0,1,0,50,90,0,3.675514541159502,1.3420806119355668,-1.0,49,49,2,2,0,0,0,50,0,0,3.7201041265911927,-1.0,-1.0,49,0,1,0,0,0,0,49,3,0,3.774048207015314,0.4125508229320377,-1.0,49,49,2,2
0,0,0,0,49,49,0,3.9478908284328367,0.0,-1.0,49,49,2,2,4.92,6.05,5.46,5.26,s03,0,1,0,49,44,0,3.9233180227658284,0.6544616390428627,-1.0,49,49,2,2,0,0,0,49,49,0,3.792479700722903,0.0,-1.0,49,49,2,2,0,0,0,49,0,0,3.880544029874504,-1.0,-1.0,49,0,1,0,0,0,0,49,49,0,3.8663634694520783,0.0,-1.0,49,49,2,2,0,1,0,49,78,0,3.8611097486196444,1.304004816062504,-1.0,49,49,2,2,0,1,0,49,22,0,3.7616087718309577,0.8651410827096352,-1.0,49,49,2,2,0,1,0,49,49,0,3.793517676863296,0.7750608847207495,-1.0,49,49,2,2,0,1,0,49,93,0,3.7472392391240206,1.268956355665967,-1.0,49,49,2,2,0,1,0,49,26,0,3.8213035764821823,0.2128257176477154,-1.0,49,49,2,2,0,1,0,49,76,0,3.772431809338459,1.3287856285231339,-1.0,49,49,2,2,0,1,0,49,3,0,3.858062462679114,1.3362286939786658,-1.0,49,49,2,2,0,0,0,50,0,0,3.780175084929497,-1.0,-1.0,49,0,1,0,0,1,0,49,82,0,3.849802272139567,1.53297275116426,-1.0,49,49,2,2
0,0,1,0,49,81,0,3.813906667198617,0.9623588470231634,-1.0,49,49,2,2,4.53,5.68,5.65,5.49,s03,0,0,0,50,49,0,3.849357551945148,0.0,-1.0,49,49,2,2,0,0,0,49,49,0,3.581569831642141,0.0,-1.0,49,49,2,2,0,0,0,49,49,0,3.8595721040861632,0.0,-1.0,49,49,2,2,0,0,0,49,0,0,3.678040420885775,-1.0,-1.0,49,0,1,0,0,0,0,49,49,0,3.7613367570635328,0.0,-1.0,49,49,2,2,0,1,0,49,11,0,3.946071221619905,1.9716033019898263,-1.0,49,49,2,2,0,1,0,49,75,0,3.8931373429588456,1.8205418409114495,-1.0,49,49,2,2,0,1,0,49,12,0,3.6669711668301663,1.8045989735390475,-1.0,49,49,2,2,0,1,0,50,19,0,3.7524962664891084,0.9279327151181821,-1.0,49,49,2,2,0,1,0,49,70,0,3.671668236624443,0.8723366538334816,-1.0,49,49,2,2,0,1,0,49,58,0,3.681610584395725,1.239216768001159,-1.0,49,49,2,2,0,0,0,49,0,0,3.711004882055889,-1.0,-1.0,49,0,1,0,0,1,0,49,49,0,3.726517660509659,0.9284826878916088,-1.0,49,49,2,2
0,0,1,0,49,26,0,3.884255997380111,1.7999135078017638,-1.0,49,49,2,2,4.33,6.21,5.68,4.62,s03,0,1,0,50,49,0,3.731831987910322,0.17727504221248008,-1.0,49,49,2,2,0,0,0,49,49,0,2.655176720757742,0.0,-1.0,49,49,2,2,0,1,0,49,89,0,3.721824215365756,0.2834948450666727,-1.0,49,49,2,2,0,0,0,50,0,0,2.9296547122791177,-1.0,-1.0,49,0,1,0,0,1,0,49,97,0,2.9948894625984646,0.9158208467647535,-1.0,49,49,2,2,0,1,0,50,49,0,3.7857940389007187,0.8907900207947103,-1.0,49,49,2,2,0,0,0,50,49,0,3.807816348016994,0.0,-1.0,49,49,2,2,0,0,0,50,49,0,2.7871794292215757,0.0,-1.0,49,49,2,2,0,1,0,49,10,0,2.9611585095686257,1.353356030979033,-1.0,49,49,2,2,0,1,0,49,82,0,2.838623023943728,0.9543624898900875,-1.0,49,49,2,2,0,0,0,49,49,0,2.7661815454899337,0.0,-1.0,49,49,2,2,0,1,0,50,85,0,2.9350012176780798,0.8789045843555839,-1.0,49,49,2,2,0,1,0,49,49,0,2.805856013481916,0.7587654021665873,-1.0,49,49,2,2
0,0,1,0,49,15,0,3.923260178864764,0.9961954898067118,-1.0,49,49,2,2,5.38,4.33,5.67,5.29,s03,0,0,0,50,49,0,3.8307027816992743,0.0,-1.0,49,49,2,2,0,1,0,49,78,0,3.593800463941284,0.9530981904073118,-1.0,49,49,2,2,0,0,0,50,49,0,3.578856380115016,0.0,-1.0,49,49,2,2,0,1,0,50,72,0,3.6304767431762492,0.8234457146828204,-1.0,49,49,2,2,0,1,0,50,49,0,3.8143193606183905,1.3732249114607447,-1.0,49,49,2,2,0,1,0,50,67,0,3.932164091217122,1.5804569780236628,-1.0,49,49,2,2,0,0,0,50,49,0,3.8906050286041713,0.0,-1.0,49,49,2,2,0,1,0,50,49,0,3.6416107344138036,0.9541618118160923,-1.0,49,49,2,2,0,1,0,49,11,0,3.655679714762194,0.6591086811319238,-1.0,49,49,2,2,0,0,0,50,49,0,3.557127242478615,0.0,-1.0,49,49,2,2,0,0,0,49,49,0,3.5962312841078057,0.0,-1.0,49,49,2,2,0,1,0,49,49,49,3.599697493225495,0.8563064451567067,0.0,49,0,1,0,0,0,0,49,49,0,3.6788895592185216,0.0,-1.0,49,49,2,2
0,0,1,0,50,94,0,3.4140605149784147,0.5002687803775491,-1.0,49,49,2,2,6.68,5.03,8.22,8.14,s04,0,0,0,49,49,0,3.6378081580038932,0.0,-1.0,49,49,2,2,0,1,0,49,98,0,3.360755392042179,1.3499851369532099,-1.0,49,49,2,2,0,0,0,49,0,0,3.4520637090353414,-1.0,-1.0,49,0,1,0,0,1,0,49,53,0,3.574021255037251,0.460802776938032,-1.0,49,49,2,2,0,0,0,49,0,0,3.3668125148367127,-1.0,-1.0,49,0,1,0,0,0,0,49,49,0,3.541995098750337,0.0,-1.0,49,49,2,2,0,0,0,49,49,0,3.753216368322489,0.0,-1.0,49,49,2,2,0,0,0,49,49,0,3.6733191097037174,0.0,-1.0,49,49,2,2,0,0,0,49,49,0,3.3815379868708906,0.0,-1.0,49,49,2,2,0,0,0,49,0,0,3.078079344149944,-1.0,-1.0,49,0,1,0,0,0,0,49,49,0,3.4805504323089287,0.0,-1.0,49,49,2,2,0,1,0,49,12,0,3.678625567698177,0.9992203964104919,-1.0,49,49,2,2,0,0,0,50,0,0,3.3177199562664397,-1.0,-1.0,49,0,1,0
0,0,0,0,50,49,0,3.708324705659482,0.0,-1.0,49,49,2,2,4.06,3.31,1.99,4.05,s04,0,0,0,49,49,0,3.603038311259224,0.0,-1.0,49,49,2,2,0,0,0,49,49,0,3.6499428536401184,0.0,-1.0,49,49,2,2,0,0,0,49,0,0,3.595834247767883,-1.0,-1.0,49,0,1,0,0,1,0,49,39,49,3.731608075231238,0.2344096332480695,0.0,49,0,1,0,0,0,0,50,49,0,3.6997014809319055,0.0,-1.0,49,49,2,2,0,1,0,49,7,0,3.6320587870966046,0.4804112785953711,-1.0,49,49,2,2,0,2,0,49,53,49,3.96116853364585,1.5718104132483612,0.0,49,0,1,0,0,1,0,49,18,0,3.633329425083979,0.45421914778524597,-1.0,49,49,2,2,0,0,0,50,49,0,3.669606864251739,0.0,-1.0,49,49,2,2,0,0,0,49,49,0,3.529383973197917,0.0,-1.0,49,49,2,2,0,0,0,50,49,0,3.6878286213177005,0.0,-1.0,49,49,2,2,0,1,0,49,67,49,3.8545101067927936,1.2010853032825233,0.0,49,0,1,0,0,0,0,49,49,0,3.6429399895562624,0.0,-1.0,49,49,2,2
0,0,0,0,50,0,0,3.717981573218512,-1.0,-1.0,49,0,1,0,8.95,8.1,5.85,8.12,s04,0,1,0,50,49,0,3.848444810086569,0.8338741125718958,-1.0,49,49,2,2,0,1,0,49,19,0,3.746509213626711,1.6949926520135765,-1.0,49,49,2,2,0,0,0,49,49,0,3.775390811164708,0.0,-1.0,49,49,2,2,0,1,0,49,19,0,3.8056094379727585,0.8778212073521509,-1.0,49,49,2,2,0,0,0,49,49,0,3.710931230113965,0.0,-1.0,49,49,2,2,0,1,0,49,83,0,3.7939869009289353,0.853881130827028,-1.0,49,49,2,2,0,1,0,50,31,0,3.8912333480601036,0.7596218154657002,-1.0,49,49,2,2,0,1,0,49,97,0,3.830482522292406,0.7248062304190682,-1.0,49,49,2,2,0,0,0,49,49,0,3.757605972245795,0.0,-1.0,49,49,2,2,0,1,0,49,17,0,3.7696391062136088,1.5606449914976692,-1.0,49,49,2,2,0,1,0,49,3,0,3.778514875845817,0.9813183614712919,-1.0,49,49,2,2,0,0,0,49,49,0,3.7962566444545507,0.0,-1.0,49,49,2,2,0,0,0,49,49,0,3.7248231005981753,0.0,-1.0,49,49,2,2
0,0,0,0,50,50,0,3.5760712881111005,0.0,-1.0,49,49,2,2,6.1,3.92,4.19,3.94,s04,0,0,0,49,49,0,3.613690964077637,0.0,-1.0,49,49,2,2,0,1,0,49,88,0,3.5825163101427493,1.7182381277533525,-1.0,49,49,2,2,0,0,0,49,49,0,3.5108079486523702,0.0,-1.0,49,49,2,2,0,0,0,50,49,0,3.61370308240873,0.0,-1.0,49,49,2,2,0,0,0,49,49,0,3.582365729380534,0.0,-1.0,49,49,2,2,0,0,0,49,49,0,3.590758767123504,0.0,-1.0,49,49,2,2,0,1,0,49,41,0,3.6918350160007507,0.7024338631276882,-1.0,49,49,2,2,0,0,0,49,49,0,3.628145157956883,0.0,-1.0,49,49,2,2,0,0,0,50,0,0,3.6348082734233462,-1.0,-1.0,49,0,1,0,0,1,0,50,91,0,3.597570222371742,1.720990705101335,-1.0,49,49,2,2,0,0,0,49,49,0,3.5925415204265283,0.0,-1.0,49,49,2,2,0,0,0,50,49,0,3.659355553896301,0.0,-1.0,49,49,2,2,0,1,0,50,92,0,3.512491786737078,1.7155634784084566,-1.0,49,49,2,2
0,0,0,0,49,49,0,3.4563930353040844,0.0,-1.0,49,49,2,2,4.06,5.04,4.15,4.88,s04,0,1,0,49,9,0,3.432499546268445,0.5813753608613231,-1.0,49,49,2,2,0,0,0,49,0,0,3.3752960159403016,-1.0,-1.0,49,0,1,0,0,1,0,49,58,0,3.425640607525483,0.8276082049515302,-1.0,49,49,2,2,0,0,0,49,0,0,3.4594422230719486,-1.0,-1.0,49,0,1,0,0,0,0,50,49,0,3.443605613996395,0.0,-1.0,49,49,2,2,0,0,0,50,0,0,3.416341384397158,-1.0,-1.0,49,0,1,0,0,1,0,50,63,0,3.9035403106072417,0.9994879571095692,-1.0,49,49,2,2,0,0,0,49,0,0,3.4572083005151084,-1.0,-1.0,49,0,1,0,0,0,0,49,0,0,3.385235058453233,-1.0,-1.0,49,0,1,0,0,0,0,49,49,0,3.3536694983806736,0.0,-1.0,49,49,2,2,0,0,0,49,49,0,3.4063583764607244,0.0,-1.0,49,49,2,2,0,1,0,49,96,0,3.4887425674291244,0.8429064586156304,-1.0,49,49,2,2,0,1,0,50,47,0,3.4180720734881596,0.9999889387164832,-1.0,49,49,2,2
0,0,1,0,50,71,0,3.8079902967334975,0.9719419905595104,-1.0,49,49,2,2,5.01,2.95,4.04,5.09,s04,0,0,0,49,49,0,3.91812682253826,0.0,-1.0,49,49,2,2,0,1,0,49,54,0,3.835384323765116,2.389767727252062,-1.0,49,49,2,2,0,0,0,49,49,0,3.7474889195183247,0.0,-1.0,49,49,2,2,0,0,0,49,49,0,3.912250215329405,0.0,-1.0,49,49,2,2,0,1,0,49,67,49,3.6906359345832476,0.8676811537914273,0.0,49,0,1,0,0,1,0,49,38,0,3.865044346293674,1.1233135105575998,-1.0,49,49,2,2,0,0,0,50,0,0,3.879785374059361,-1.0,-1.0,49,0,1,0,0,0,0,49,49,0,3.9342164568974085,0.0,-1.0,49,49,2,2,0,1,0,49,13,0,3.7992689307105363,1.1421190241898895,-1.0,49,49,2,2,0,1,0,49,43,0,3.748376022982059,1.1405155207832125,-1.0,49,49,2,2,0,1,0,49,11,0,3.8351791461240885,1.5716059356674736,-1.0,49,49,2,2,0,1,0,49,61,0,3.909881226735466,0.98164198708858,-1.0,49,49,2,2,0,0,0,50,49,0,3.6844549303737244,0.0,-1.0,49,49,2,2
0,0,1,0,49,78,0,3.8366802689124713,1.10753831043016,-1.0,49,49,2,2,2.94,1.99,2.92,2.1,s04,0,1,0,49,89,0,3.859463145794569,2.1529972229046277,-1.0,49,49,2,2,0,2,0,50,68,0,3.8443667108050925,1.6585371614373638,-1.0,49,49,2,2,0,1,1,50,29,67,3.8069122436743372,1.9674480450595473,0.6364300680722831,49,0,1,0,0,1,0,49,91,0,3.9067654597470773,1.9421023724284725,-1.0,49,49,2,2,0,1,0,49,68,0,3.8440206514963173,1.4189748946971097,-1.0,49,49,2,2,0,1,0,49,66,0,3.870848833831137,1.6319417131344478,-1.0,49,49,2,2,0,0,0,49,49,0,3.84578674388529,0.0,-1.0,49,49,2,2,0,1,0,49,10,0,3.8704967779500055,0.8653553139562692,-1.0,49,49,2,2,0,1,0,49,79,0,3.8347489835672386,1.4784966783624998,-1.0,49,49,2,2,0,1,0,49,55,0,3.923541535897405,1.4973269487112026,-1.0,49,49,2,2,0,1,0,49,41,0,3.8690515623129302,1.3979626687720788,-1.0,49,49,2,2,0,1,0,49,75,0,3.901803438440246,1.0945526598564026,-1.0,49,49,2,2,0,1,0,50,45,0,3.7159200876778353,0.9702234875942863,-1.0,49,49,2,2
0,0,1,0,49,50,0,3.8191876254058608,0.7053982025533901,-1.0,49,49,2,2,5.97,5.05,7.14,5.85,s04,0,1,0,49,17,0,3.8034732658954424,1.7833514920423545,-1.0,49,49,2,2,0,1,0,49,66,0,3.6343156970795674,0.999999408852722,-1.0,49,49,2,2,0,1,0,50,17,0,3.72129974429574,0.49045974536189796,-1.0,49,49,2,2,0,1,0,49,85,0,3.746953452416227,1.5429629148257968,-1.0,49,49,2,2,0,1,0,50,87,0,3.75339130512952,0.8815781571142135,-1.0,49,49,2,2,0,1,0,49,33,0,3.7063970352987186,0.6993147966826884,-1.0,49,49,2,2,0,1,0,49,73,0,3.9474329165416706,0.9098115981555682,-1.0,49,49,2,2,0,1,0,49,4,49,3.767569492432237,0.927018733764282,0.0,49,0,1,0,0,1,0,49,60,0,3.6046838366790275,0.947803793606916,-1.0,49,49,2,2,0,1,0,49,80,0,3.6310061446436706,1.4394607118422003,-1.0,49,49,2,2,0,0,0,50,49,0,3.6880696671826185,0.0,-1.0,49,49,2,2,0,1,0,49,81,0,3.7431430902164093,1.1421837238075698,-1.0,49,49,2,2,0,0,0,49,49,0,3.640218155032277,0.0,-1.0,49,49,2,2
0,0,0,0,49,17,0,3.712263961988155,0.10947330262160763,-1.0,49,49,2,2,6.05,3.96,5.06,5.04,s04,0,0,0,49,49,0,3.7117545476620717,0.0,-1.0,49,49,2,2,0,1,0,49,23,0,3.7054007303217857,0.9057989160417766,-1.0,49,49,2,2,0,0,0,49,49,0,3.704311248165989,0.0,-1.0,49,49,2,2,0,1,0,49,81,0,3.72182953658876,0.9673164910782313,-1.0,49,49,2,2,0,1,0,49,84,0,3.670369596518924,0.4980929734440352,-1.0,49,49,2,2,0,0,0,50,0,0,3.655412991922455,-1.0,-1.0,49,0,1,0,0,0,0,49,49,0,3.8269724622295693,0.0,-1.0,49,49,2,2,0,1,0,50,49,0,3.6346652090622715,0.9901893118279378,-1.0,49,49,2,2,0,1,0,50,29,0,3.6315630909409373,0.9813854338538116,-1.0,49,49,2,2,0,1,0,49,69,0,3.7394315976754835,1.9342007168706659,-1.0,49,49,2,2,0,1,0,49,10,0,3.6510466407312556,0.8040377782074686,-1.0,49,49,2,2,0,0,0,49,49,0,3.714849900036099,0.0,-1.0,49,49,2,2,0,0,0,49,49,0,3.696376261698336,0.0,-1.0,49,49,2,2
0,0,1,0,49,80,0,3.4269774875289585,1.3664660780765552,-1.0,49,49,2,2,3.15,3.99,4.12,4.04,s04,0,1,0,50,95,0,3.592570690577824,0.8996147265332438,-1.0,49,49,2,2,0,0,0,50,49,0,3.408282073233702,0.0,-1.0,49,49,2,2,0,0,0,50,49,0,3.3960974264125716,0.0,-1.0,49,49,2,2,0,1,0,49,92,0,3.551284127882074,0.9807406408316323,-1.0,49,49,2,2,0,1,0,49,94,0,3.346432688970293,0.8783572493492924,-1.0,49,49,2,2,0,1,0,49,88,0,3.4537718428774746,0.5985857766913132,-1.0,49,49,2,2,0,1,0,50,74,0,3.919810771386347,0.7337137730686205,-1.0,49,49,2,2,0,1,0,49,90,0,3.62085084353305,0.969988468463894,-1.0,49,49,2,2,0,0,0,50,0,0,3.445740634022831,-1.0,-1.0,49,0,1,0,0,0,0,49,49,0,3.2786444527954663,0.0,-1.0,49,49,2,2,0,1,0,49,1,0,3.456221705877223,0.9999999183768056,-1.0,49,49,2,2,0,1,0,49,81,0,3.6690796423706895,0.8592878070449568,-1.0,49,49,2,2,0,0,0,49,49,0,3.331690238789607,0.0,-1.0,49,49,2,2
0,0,0,0,49,49,0,3.2851519377564444,0.0,-1.0,49,49,2,2,7.24,7.08,6.08,7.01,s04,0,0,0,49,0,0,3.182846772910512,-1.0,-1.0,49,0,1,0,0,0,0,49,49,0,3.213119060379668,0.0,-1.0,49,49,2,2,0,0,0,49,0,0,3.1692045376302045,-1.0,-1.0,49,0,1,0,0,0,0,50,49,0,3.24865569682797,0.0,-1.0,49,49,2,2,0,0,0,49,0,0,3.208151593920116,-1.0,-1.0,49,0,1,0,0,0,0,49,0,0,3.1973031280348723,-1.0,-1.0,49,0,1,0,0,1,0,49,55,0,3.856615095050862,0.8859967056126167,-1.0,49,49,2,2,0,0,0,49,0,0,3.2722336949761086,-1.0,-1.0,49,0,1,0,0,1,0,49,31,0,3.193211820090211,0.862289440911441,-1.0,49,49,2,2,0,1,0,49,65,0,3.3563655501291,1.3509869721240164,-1.0,49,49,2,2,0,0,0,49,49,0,3.197589799454757,0.0,-1.0,49,49,2,2,0,0,0,49,0,0,3.2389947196271267,-1.0,-1.0,49,0,1,0,0,0,0,49,49,0,3.1976215831913035,0.0,-1.0,49,49,2,2
0,0,0,0,50,49,0,3.500751739589172,0.0,-1.0,49,49,2,2,5.04,5.04,5.04,5.08,s04,0,0,0,49,0,0,3.39965190912535,-1.0,-1.0,49,0,1,0,0,0,0,49,0,0,3.455146101189743,-1.0,-1.0,49,0,1,0,0,0,0,49,49,0,3.4281197929509144,0.0,-1.0,49,49,2,2,0,0,0,49,49,0,3.464971574456187,0.0,-1.0,49,49,2,2,0,0,0,50,49,0,3.402216711289907,0.0,-1.0,49,49,2,2,0,0,0,50,0,0,3.39295297572823,-1.0,-1.0,49,0,1,0,0,0,0,49,0,0,3.9164966368580805,-1.0,-1.0,49,0,1,0,0,0,0,49,0,0,3.391000374895241,-1.0,-1.0,49,0,1,0,0,0,0,49,49,0,3.438300357702407,0.0,-1.0,49,49,2,2,0,0,0,50,49,0,3.334123813011969,0.0,-1.0,49,49,2,2,0,0,0,49,0,0,3.402209637960681,-1.0,-1.0,49,0,1,0,0,1,0,50,94,0,3.382241489196219,0.2256669309501333,-1.0,49,49,2,2,0,0,0,49,49,0,3.438699930200928,0.0,-1.0,49,49,2,2
0,0,1,0,49,23,0,3.7311734934472454,1.2692038686990548,-1.0,49,49,2,2,4.12,4.88,5.05,5.17,s04,0,0,0,49,49,0,3.8066639521151733,0.0,-1.0,49,49,2,2,0,1,0,49,70,0,3.7850556210392927,1.8900217209146761,-1.0,49,49,2,2,0,1,0,49,10,0,3.781766604912849,1.5231309161022915,-1.0,49,49,2,2,0,0,0,50,49,0,3.7594457473258727,0.0,-1.0,49,49,2,2,0,1,0,49,50,0,3.8050940813001004,1.2753016706564186,-1.0,49,49,2,2,0,0,0,49,49,0,3.8125754611559914,0.0,-1.0,49,49,2,2,0,1,0,49,76,0,3.9119102313611367,1.4397359603789335,-1.0,49,49,2,2,0,1,0,49,52,0,3.800334489141757,0.1853693518841981,-1.0,49,49,2,2,0,1,0,49,78,0,3.8269911273730397,0.9153265156896448,-1.0,49,49,2,2,0,0,0,50,0,0,3.6548463326242966,-1.0,-1.0,49,0,1,0,0,0,0,49,49,0,3.8102138128773935,0.0,-1.0,49,49,2,2,0,0,0,50,49,0,3.7470392343229584,0.0,-1.0,49,49,2,2,0,1,0,49,46,0,3.753094061494719,1.2057509175841823,-1.0,49,49,2,2
